BB_203A_13
Integration time [ms]:   5,000
Averaging Nr. [scans]: 10
Smoothing Nr. [pixels]: 3
Data measured with spectrometer [name]: 7516255SP
Wave   ;Sample   ;Dark     ;Reference
[nm]   ;[counts] ;[counts] ;[counts] 

177,229;  244,617;  246,500;    0,000
177,829;  243,111;  244,100;    0,000
178,430;  247,578;  247,950;    0,000
179,030;  246,308;  248,171;    0,000
179,630;  247,662;  250,214;    0,000
180,230;  245,059;  247,000;    0,000
180,830;  250,899;  250,743;    0,000
181,430;  248,191;  247,329;    0,000
182,030;  253,720;  252,600;    0,000
182,630;  250,081;  250,629;    0,000
183,230;  254,322;  255,686;    0,000
183,830;  253,161;  255,229;    0,000
184,430;  258,946;  260,300;    0,000
185,030;  259,903;  261,701;    0,000
185,630;  261,239;  264,017;    0,000
186,229;  259,063;  262,761;    0,000
186,829;  260,630;  264,219;    0,000
187,429;  256,843;  258,963;    0,000
188,029;  256,795;  261,151;    0,000
188,628;  255,784;  259,952;    0,000
189,228;  255,685;  260,352;    0,000
189,828;  254,281;  260,896;    0,000
190,428;  255,268;  262,440;    0,000
191,027;  255,129;  262,598;    0,000
191,627;  257,127;  263,755;    0,000
192,227;  255,167;  260,655;    0,000
192,826;  254,877;  259,584;    0,000
193,426;  250,065;  256,684;    0,000
194,025;  254,286;  258,468;    0,000
194,625;  250,280;  255,010;    0,000
195,224;  247,104;  251,038;    0,000
195,824;  241,992;  247,551;    0,000
196,423;  243,894;  249,451;    0,000
197,023;  234,488;  241,551;    0,000
197,622;  240,042;  246,593;    0,000
198,221;  233,033;  241,736;    0,000
198,821;  232,142;  240,136;    0,000
199,420;  231,563;  238,835;    0,000
200,019;  229,421;  236,607;    0,000
200,619;  230,244;  236,978;    0,000
201,218;  233,850;  240,392;    0,000
201,817;  227,877;  233,250;    0,000
202,416;  235,659;  238,907;    0,000
203,016;  234,947;  238,549;    0,000
203,615;  235,254;  241,292;    0,000
204,214;  236,620;  242,307;    0,000
204,813;  238,702;  244,378;    0,000
205,412;  239,702;  244,535;    0,000
206,011;  240,374;  246,164;    0,000
206,610;  230,544;  237,335;    0,000
207,209;  228,659;  234,564;    0,000
207,808;  231,991;  235,521;    0,000
208,407;  230,392;  237,135;    0,000
209,006;  223,642;  231,149;    0,000
209,605;  227,305;  235,249;    0,000
210,204;  224,284;  232,521;    0,000
210,803;  227,801;  234,649;    0,000
211,402;  230,102;  237,549;    0,000
212,001;  229,578;  237,221;    0,000
212,599;  232,985;  236,506;    0,000
213,198;  232,699;  238,564;    0,000
213,797;  228,265;  233,906;    0,000
214,396;  231,391;  238,278;    0,000
214,994;  229,375;  237,249;    0,000
215,593;  229,151;  237,392;    0,000
216,192;  225,615;  235,535;    0,000
216,790;  227,524;  237,421;    0,000
217,389;  230,734;  238,892;    0,000
217,988;  232,898;  240,978;    0,000
218,586;  229,474;  236,707;    0,000
219,185;  227,839;  234,435;    0,000
219,783;  225,717;  232,592;    0,000
220,382;  227,340;  235,121;    0,000
220,980;  226,760;  235,021;    0,000
221,579;  227,173;  235,835;    0,000
222,177;  226,255;  235,278;    0,000
222,776;  227,022;  235,449;    0,000
223,374;  231,006;  239,135;    0,000
223,972;  233,361;  240,049;    0,000
224,571;  233,572;  237,164;    0,000
225,169;  233,410;  238,135;    0,000
225,767;  230,602;  235,292;    0,000
226,366;  233,734;  237,906;    0,000
226,964;  235,515;  238,321;    0,000
227,562;  232,195;  237,835;    0,000
228,160;  231,821;  238,092;    0,000
228,758;  227,896;  235,635;    0,000
229,356;  229,067;  235,492;    0,000
229,955;  230,261;  235,949;    0,000
230,553;  229,393;  235,792;    0,000
231,151;  225,420;  233,421;    0,000
231,749;  227,963;  234,721;    0,000
232,347;  229,866;  236,378;    0,000
232,945;  231,583;  237,907;    0,000
233,543;  231,631;  238,421;    0,000
234,141;  228,597;  233,707;    0,000
234,739;  229,472;  234,049;    0,000
235,337;  233,389;  239,164;    0,000
235,934;  235,087;  240,092;    0,000
236,532;  235,751;  241,850;    0,000
237,130;  235,676;  243,264;    0,000
237,728;  237,257;  244,092;    0,000
238,326;  242,221;  249,950;    0,000
238,923;  235,271;  245,193;    0,000
239,521;  231,666;  241,321;    0,000
240,119;  224,273;  235,707;    0,000
240,716;  225,503;  234,492;    0,000
241,314;  223,027;  231,364;    0,000
241,912;  215,253;  225,549;    0,000
242,509;  218,799;  230,807;    0,000
243,107;  223,763;  235,635;    0,000
243,704;  225,059;  236,392;    0,000
244,302;  232,699;  244,049;    0,000
244,899;  229,592;  243,121;    0,000
245,497;  238,185;  246,821;    0,000
246,094;  238,980;  245,292;    0,000
246,692;  233,076;  239,021;    0,000
247,289;  226,910;  234,021;    0,000
247,887;  230,282;  236,549;    0,000
248,484;  230,674;  234,692;    0,000
249,081;  226,436;  230,249;    0,000
249,679;  221,168;  228,406;    0,000
250,276;  221,592;  232,249;    0,000
250,873;  222,666;  233,121;    0,000
251,470;  233,449;  240,392;    0,000
252,067;  225,845;  233,878;    0,000
252,665;  222,308;  233,292;    0,000
253,262;  226,345;  236,963;    0,000
253,859;  229,773;  240,335;    0,000
254,456;  233,418;  242,163;    0,000
255,053;  230,759;  240,306;    0,000
255,650;  229,490;  239,549;    0,000
256,247;  230,129;  241,278;    0,000
256,844;  228,074;  237,535;    0,000
257,441;  232,276;  242,049;    0,000
258,038;  224,042;  233,377;    0,000
258,635;  228,045;  236,663;    0,000
259,232;  227,254;  235,135;    0,000
259,829;  226,302;  234,249;    0,000
260,426;  229,210;  235,006;    0,000
261,022;  233,860;  238,578;    0,000
261,619;  230,322;  235,764;    0,000
262,216;  234,719;  240,035;    0,000
262,813;  228,483;  233,921;    0,000
263,409;  231,872;  236,878;    0,000
264,006;  230,774;  235,878;    0,000
264,603;  233,222;  238,220;    0,000
265,199;  233,725;  238,863;    0,000
265,796;  230,510;  233,806;    0,000
266,393;  238,444;  241,092;    0,000
266,989;  237,878;  241,006;    0,000
267,586;  237,443;  240,849;    0,000
268,182;  239,479;  243,492;    0,000
268,779;  241,511;  243,992;    0,000
269,375;  242,279;  245,206;    0,000
269,971;  238,443;  243,035;    0,000
270,568;  234,040;  239,363;    0,000
271,164;  231,789;  238,049;    0,000
271,761;  233,154;  239,421;    0,000
272,357;  228,640;  234,863;    0,000
272,953;  227,026;  234,935;    0,000
273,550;  227,848;  235,378;    0,000
274,146;  234,286;  240,049;    0,000
274,742;  234,136;  240,178;    0,000
275,338;  236,251;  240,521;    0,000
275,934;  237,813;  243,349;    0,000
276,531;  237,333;  241,978;    0,000
277,127;  235,091;  240,135;    0,000
277,723;  230,389;  237,049;    0,000
278,319;  226,287;  234,764;    0,000
278,915;  230,272;  239,078;    0,000
279,511;  222,689;  232,907;    0,000
280,107;  223,477;  232,264;    0,000
280,703;  224,151;  234,135;    0,000
281,299;  224,399;  234,892;    0,000
281,895;  224,343;  235,021;    0,000
282,491;  224,497;  234,878;    0,000
283,086;  224,296;  235,178;    0,000
283,682;  229,194;  240,407;    0,000
284,278;  228,756;  237,535;    0,000
284,874;  227,036;  235,107;    0,000
285,470;  232,376;  238,621;    0,000
286,065;  234,917;  238,550;    0,000
286,661;  238,876;  242,621;    0,000
287,257;  233,197;  235,707;    0,000
287,852;  238,111;  237,850;    0,000
288,448;  234,855;  236,607;    0,000
289,044;  234,920;  236,907;    0,000
289,639;  231,063;  233,950;    0,000
290,235;  228,783;  231,050;    0,000
290,830;  227,149;  228,907;    0,000
291,426;  224,549;  226,707;    0,000
292,021;  223,773;  227,721;    0,000
292,617;  220,612;  224,664;    0,000
293,212;  221,240;  225,221;    0,000
293,807;  218,687;  222,750;    0,000
294,403;  221,763;  229,278;    0,000
294,998;  222,890;  230,678;    0,000
295,593;  222,527;  231,064;    0,000
296,189;  221,456;  229,864;    0,000
296,784;  222,346;  229,049;    0,000
297,379;  223,757;  231,092;    0,000
297,974;  225,734;  235,106;    0,000
298,570;  218,073;  227,849;    0,000
299,165;  215,643;  224,992;    0,000
299,760;  216,239;  225,321;    0,000
300,355;  218,864;  228,921;    0,000
300,950;  220,170;  231,735;    0,000
301,545;  221,006;  232,621;    0,000
302,140;  221,905;  231,064;    0,000
302,735;  224,859;  232,049;    0,000
303,330;  227,688;  236,049;    0,000
303,925;  227,625;  235,949;    0,000
304,520;  227,048;  234,449;    0,000
305,115;  227,022;  236,307;    0,000
305,709;  223,484;  232,021;    0,000
306,304;  220,681;  229,064;    0,000
306,899;  219,454;  226,607;    0,000
307,494;  221,469;  225,964;    0,000
308,089;  217,214;  222,292;    0,000
308,683;  217,071;  222,035;    0,000
309,278;  215,506;  217,821;    0,000
309,873;  220,608;  221,635;    0,000
310,467;  224,881;  225,692;    0,000
311,062;  228,450;  229,878;    0,000
311,656;  226,302;  228,035;    0,000
312,251;  231,947;  233,449;    0,000
312,846;  230,936;  233,563;    0,000
313,440;  235,475;  238,392;    0,000
314,035;  232,431;  235,235;    0,000
314,629;  232,638;  236,820;    0,000
315,223;  234,519;  239,920;    0,000
315,818;  235,430;  242,178;    0,000
316,412;  234,694;  239,749;    0,000
317,006;  233,220;  239,292;    0,000
317,601;  229,717;  235,978;    0,000
318,195;  233,832;  241,921;    0,000
318,789;  232,583;  240,078;    0,000
319,384;  233,242;  239,507;    0,000
319,978;  228,338;  234,821;    0,000
320,572;  230,706;  237,950;    0,000
321,166;  235,450;  240,607;    0,000
321,760;  236,716;  242,092;    0,000
322,354;  234,599;  238,864;    0,000
322,948;  232,470;  237,778;    0,000
323,542;  228,185;  235,578;    0,000
324,136;  229,353;  237,978;    0,000
324,730;  229,416;  237,349;    0,000
325,324;  226,443;  233,963;    0,000
325,918;  223,822;  233,006;    0,000
326,512;  223,258;  233,192;    0,000
327,106;  225,774;  236,363;    0,000
327,700;  224,128;  233,149;    0,000
328,294;  227,363;  235,877;    0,000
328,887;  223,954;  234,720;    0,000
329,481;  224,426;  236,106;    0,000
330,075;  225,603;  234,634;    0,000
330,669;  223,624;  232,520;    0,000
331,262;  221,004;  226,577;    0,000
331,856;  222,370;  226,992;    0,000
332,449;  221,788;  225,963;    0,000
333,043;  225,211;  228,077;    0,000
333,637;  222,051;  224,620;    0,000
334,230;  220,975;  224,334;    0,000
334,824;  221,999;  224,734;    0,000
335,417;  222,276;  225,320;    0,000
336,011;  221,701;  224,977;    0,000
336,604;  216,129;  218,520;    0,000
337,197;  212,466;  213,805;    0,000
337,791;  213,673;  214,663;    0,000
338,384;  212,863;  213,991;    0,000
338,977;  210,902;  212,834;    0,000
339,571;  207,893;  211,249;    0,000
340,164;  208,257;  210,091;    0,000
340,757;  215,477;  217,863;    0,000
341,350;  215,603;  217,548;    0,000
341,943;  212,516;  214,991;    0,000
342,537;  209,061;  211,906;    0,000
343,130;  206,412;  210,448;    0,000
343,723;  209,417;  213,891;    0,000
344,316;  205,716;  212,191;    0,000
344,909;  203,309;  209,620;    0,000
345,502;  205,758;  214,991;    0,000
346,095;  207,997;  217,477;    0,000
346,688;  212,772;  223,720;    0,000
347,281;  215,321;  223,891;    0,000
347,874;  215,281;  223,234;    0,000
348,466;  223,519;  232,305;    0,000
349,059;  224,785;  232,305;    0,000
349,652;  219,344;  227,905;    0,000
350,245;  221,382;  227,862;    0,000
350,838;  219,811;  224,748;    0,000
351,430;  220,476;  226,791;    0,000
352,023;  217,115;  222,262;    0,000
352,616;  210,520;  214,477;    0,000
353,208;  208,733;  215,991;    0,000
353,801;  215,145;  220,548;    0,000
354,393;  213,633;  221,248;    0,000
354,986;  215,495;  222,963;    0,000
355,578;  216,327;  222,991;    0,000
356,171;  219,560;  227,734;    0,000
356,763;  224,621;  231,677;    0,000
357,356;  223,683;  228,805;    0,000
357,948;  221,761;  225,205;    0,000
358,541;  223,850;  225,734;    0,000
359,133;  223,896;  227,063;    0,000
359,725;  222,241;  225,562;    0,000
360,318;  218,510;  222,305;    0,000
360,910;  216,573;  223,048;    0,000
361,502;  218,673;  223,791;    0,000
362,094;  217,394;  224,248;    0,000
362,686;  213,078;  218,677;    0,000
363,279;  209,382;  215,248;    0,000
363,871;  212,818;  219,305;    0,000
364,463;  216,280;  221,777;    0,000
365,055;  215,415;  218,034;    0,000
365,647;  214,130;  218,791;    0,000
366,239;  211,815;  216,263;    0,000
366,831;  212,786;  221,691;    0,000
367,423;  215,528;  224,605;    0,000
368,015;  213,881;  221,120;    0,000
368,607;  213,491;  221,420;    0,000
369,198;  215,658;  224,748;    0,000
369,790;  213,667;  222,805;    0,000
370,382;  215,016;  222,448;    0,000
370,974;  215,135;  219,391;    0,000
371,565;  215,461;  217,891;    0,000
372,157;  212,316;  216,862;    0,000
372,749;  213,157;  216,705;    0,000
373,341;  206,146;  210,891;    0,000
373,932;  214,306;  217,363;    0,000
374,524;  215,245;  220,948;    0,000
375,115;  214,592;  222,748;    0,000
375,707;  216,223;  225,720;    0,000
376,298;  222,786;  228,977;    0,000
376,890;  222,630;  228,691;    0,000
377,481;  228,590;  233,534;    0,000
378,073;  221,700;  226,877;    0,000
378,664;  223,721;  228,148;    0,000
379,255;  225,989;  226,948;    0,000
379,847;  225,242;  226,062;    0,000
380,438;  221,364;  223,162;    0,000
381,029;  220,152;  223,205;    0,000
381,620;  215,303;  220,105;    0,000
382,212;  215,455;  221,491;    0,000
382,803;  213,546;  219,491;    0,000
383,394;  212,074;  218,234;    0,000
383,985;  209,964;  215,306;    0,000
384,576;  211,005;  219,520;    0,000
385,167;  207,065;  216,706;    0,000
385,758;  208,518;  218,521;    0,000
386,349;  205,191;  214,407;    0,000
386,940;  205,746;  215,479;    0,000
387,531;  207,804;  220,393;    0,000
388,122;  207,400;  221,951;    0,000
388,713;  203,047;  214,109;    0,000
389,304;  203,704;  216,380;    0,000
389,895;  204,718;  215,895;    0,000
390,485;  213,185;  225,453;    0,000
391,076;  208,198;  220,339;    0,000
391,667;  209,358;  219,296;    0,000
392,258;  208,613;  217,654;    0,000
392,848;  210,567;  221,997;    0,000
393,439;  209,591;  216,911;    0,000
394,030;  208,633;  213,611;    0,000
394,620;  205,329;  210,539;    0,000
395,211;  211,079;  213,968;    0,000
395,801;  209,249;  212,382;    0,000
396,392;  208,349;  212,710;    0,000
396,982;  207,648;  212,795;    0,000
397,573;  213,323;  219,895;    0,000
398,163;  214,017;  223,795;    0,000
398,753;  209,297;  219,880;    0,000
399,344;  205,230;  216,523;    0,000
399,934;  200,495;  212,895;    0,000
400,524;  202,035;  213,852;    0,000
401,115;  201,782;  214,410;    0,000
401,705;  195,153;  207,352;    0,000
402,295;  196,174;  207,567;    0,000
402,885;  195,889;  205,610;    0,000
403,475;  196,196;  206,610;    0,000
404,065;  198,765;  207,595;    0,000
404,655;  197,146;  206,095;    0,000
405,245;  197,418;  203,409;    0,000
405,835;  205,066;  211,124;    0,000
406,425;  206,228;  211,652;    0,000
407,015;  207,529;  213,681;    0,000
407,605;  210,327;  216,495;    0,000
408,195;  213,263;  221,523;    0,000
408,785;  213,847;  221,809;    0,000
409,375;  214,544;  224,638;    0,000
409,965;  214,870;  223,695;    0,000
410,554;  217,432;  226,838;    0,000
411,144;  220,706;  229,466;    0,000
411,734;  221,359;  229,352;    0,000
412,324;  219,555;  226,666;    0,000
412,913;  220,097;  227,938;    0,000
413,503;  225,920;  232,009;    0,000
414,092;  224,576;  233,809;    0,000
414,682;  222,547;  230,552;    0,000
415,271;  220,535;  227,466;    0,000
415,861;  215,829;  224,352;    0,000
416,450;  217,571;  226,323;    0,000
417,040;  218,668;  225,923;    0,000
417,629;  216,404;  221,352;    0,000
418,219;  213,079;  218,009;    0,000
418,808;  212,239;  218,137;    0,000
419,397;  209,679;  218,195;    0,000
419,986;  215,496;  224,880;    0,000
420,576;  217,946;  226,266;    0,000
421,165;  220,725;  227,480;    0,000
421,754;  215,712;  223,623;    0,000
422,343;  219,285;  227,609;    0,000
422,932;  216,185;  224,694;    0,000
423,521;  219,291;  226,809;    0,000
424,111;  212,768;  220,352;    0,000
424,700;  210,989;  220,494;    0,000
425,289;  208,152;  218,980;    0,000
425,878;  211,506;  221,823;    0,000
426,466;  208,017;  217,809;    0,000
427,055;  209,500;  219,380;    0,000
427,644;  209,877;  219,766;    0,000
428,233;  216,876;  224,694;    0,000
428,822;  215,934;  222,209;    0,000
429,411;  216,372;  221,980;    0,000
429,999;  216,717;  225,352;    0,000
430,588;  215,460;  222,009;    0,000
431,177;  213,962;  222,495;    0,000
431,766;  214,198;  223,252;    0,000
432,354;  212,871;  223,766;    0,000
432,943;  210,258;  220,652;    0,000
433,531;  209,319;  222,280;    0,000
434,120;  208,476;  220,723;    0,000
434,708;  210,380;  224,952;    0,000
435,297;  214,680;  226,752;    0,000
435,885;  210,230;  223,309;    0,000
436,474;  206,166;  218,280;    0,000
437,062;  203,484;  218,380;    0,000
437,650;  204,471;  215,237;    0,000
438,239;  201,150;  210,866;    0,000
438,827;  198,657;  206,880;    0,000
439,415;  194,593;  202,723;    0,000
440,003;  199,045;  204,665;    0,000
440,592;  202,021;  205,523;    0,000
441,180;  204,999;  207,437;    0,000
441,768;  202,205;  206,123;    0,000
442,356;  205,459;  210,251;    0,000
442,944;  208,065;  214,151;    0,000
443,532;  211,522;  217,522;    0,000
444,120;  206,452;  211,722;    0,000
444,708;  206,315;  213,079;    0,000
445,296;  205,050;  211,108;    0,000
445,884;  207,350;  214,308;    0,000
446,472;  205,869;  213,351;    0,000
447,060;  204,061;  211,565;    0,000
447,647;  201,194;  210,394;    0,000
448,235;  206,304;  217,108;    0,000
448,823;  204,202;  215,479;    0,000
449,411;  206,158;  217,622;    0,000
449,998;  203,045;  214,865;    0,000
450,586;  202,208;  215,108;    0,000
451,173;  207,650;  219,051;    0,000
451,761;  208,726;  218,708;    0,000
452,349;  208,431;  219,294;    0,000
452,936;  213,433;  223,751;    0,000
453,524;  212,629;  222,765;    0,000
454,111;  215,880;  224,151;    0,000
454,698;  217,813;  224,951;    0,000
455,286;  219,482;  227,565;    0,000
455,873;  221,051;  229,751;    0,000
456,461;  222,298;  230,350;    0,000
457,048;  217,884;  227,193;    0,000
457,635;  220,174;  229,765;    0,000
458,222;  221,097;  232,650;    0,000
458,810;  225,982;  236,022;    0,000
459,397;  217,861;  227,307;    0,000
459,984;  219,141;  229,179;    0,000
460,571;  215,267;  223,807;    0,000
461,158;  212,389;  221,050;    0,000
461,745;  211,411;  219,465;    0,000
462,332;  209,556;  219,150;    0,000
462,919;  205,409;  216,507;    0,000
463,506;  214,251;  224,379;    0,000
464,093;  212,552;  221,208;    0,000
464,680;  213,585;  223,650;    0,000
465,267;  219,231;  227,936;    0,000
465,853;  216,057;  226,450;    0,000
466,440;  218,891;  228,150;    0,000
467,027;  220,594;  228,893;    0,000
467,614;  216,811;  224,979;    0,000
468,200;  221,088;  229,750;    0,000
468,787;  221,393;  227,607;    0,000
469,374;  222,560;  227,636;    0,000
469,960;  227,119;  230,007;    0,000
470,547;  226,753;  226,878;    0,000
471,133;  222,112;  223,678;    0,000
471,720;  221,214;  224,207;    0,000
472,306;  223,386;  224,064;    0,000
472,893;  222,369;  224,193;    0,000
473,479;  224,044;  228,793;    0,000
474,065;  222,896;  227,350;    0,000
474,652;  223,558;  229,721;    0,000
475,238;  227,128;  232,321;    0,000
475,824;  224,466;  227,664;    0,000
476,410;  226,129;  230,321;    0,000
476,997;  230,265;  234,007;    0,000
477,583;  229,071;  230,035;    0,000
478,169;  229,240;  231,707;    0,000
478,755;  227,972;  231,592;    0,000
479,341;  223,752;  226,593;    0,000
479,927;  224,377;  227,650;    0,000
480,513;  219,812;  225,593;    0,000
481,099;  216,389;  222,950;    0,000
481,685;  215,381;  223,607;    0,000
482,271;  216,146;  223,636;    0,000
482,857;  211,610;  218,550;    0,000
483,443;  217,949;  226,707;    0,000
484,028;  214,735;  224,193;    0,000
484,614;  213,988;  222,750;    0,000
485,200;  208,399;  217,993;    0,000
485,786;  207,401;  215,093;    0,000
486,371;  208,166;  218,564;    0,000
486,957;  213,856;  223,064;    0,000
487,543;  212,803;  220,421;    0,000
488,128;  215,082;  222,050;    0,000
488,714;  216,466;  222,778;    0,000
489,299;  226,524;  231,150;    0,000
489,885;  223,861;  229,264;    0,000
490,470;  223,239;  225,435;    0,000
491,055;  219,334;  222,307;    0,000
491,641;  220,240;  223,335;    0,000
492,226;  227,609;  230,850;    0,000
492,811;  224,443;  226,235;    0,000
493,397;  224,709;  227,092;    0,000
493,982;  227,299;  228,107;    0,000
494,567;  225,987;  229,449;    0,000
495,152;  228,613;  230,678;    0,000
495,738;  222,932;  227,464;    0,000
496,323;  219,366;  223,707;    0,000
496,908;  219,517;  226,849;    0,000
497,493;  214,721;  224,092;    0,000
498,078;  215,048;  225,635;    0,000
498,663;  213,411;  223,507;    0,000
499,248;  211,789;  221,935;    0,000
499,833;  213,024;  219,906;    0,000
500,417;  208,638;  216,335;    0,000
501,002;  209,298;  214,064;    0,000
501,587;  205,703;  209,635;    0,000
502,172;  206,876;  210,249;    0,000
502,757;  205,705;  208,278;    0,000
503,341;  209,157;  210,749;    0,000
503,926;  206,516;  209,249;    0,000
504,511;  206,864;  208,564;    0,000
505,095;  213,217;  217,449;    0,000
505,680;  215,700;  218,707;    0,000
506,264;  223,022;  227,364;    0,000
506,849;  216,668;  221,006;    0,000
507,433;  219,915;  225,364;    0,000
508,018;  224,382;  229,992;    0,000
508,602;  228,395;  232,764;    0,000
509,186;  227,226;  229,463;    0,000
509,771;  223,345;  228,206;    0,000
510,355;  218,909;  222,806;    0,000
510,939;  223,138;  225,792;    0,000
511,524;  221,005;  223,806;    0,000
512,108;  220,064;  222,192;    0,000
512,692;  220,052;  223,792;    0,000
513,276;  211,814;  216,921;    0,000
513,860;  217,419;  220,621;    0,000
514,444;  213,708;  217,878;    0,000
515,028;  218,604;  223,378;    0,000
515,612;  213,935;  219,278;    0,000
516,196;  215,648;  220,749;    0,000
516,780;  214,955;  221,721;    0,000
517,364;  216,756;  224,721;    0,000
517,948;  218,140;  227,335;    0,000
518,532;  220,701;  229,006;    0,000
519,115;  217,713;  225,778;    0,000
519,699;  225,839;  233,506;    0,000
520,283;  226,566;  233,835;    0,000
520,867;  228,132;  232,863;    0,000
521,450;  230,218;  233,049;    0,000
522,034;  231,793;  232,449;    0,000
522,617;  230,555;  232,763;    0,000
523,201;  232,475;  234,878;    0,000
523,784;  225,882;  228,478;    0,000
524,368;  225,388;  228,521;    0,000
524,951;  226,019;  229,592;    0,000
525,535;  228,141;  230,492;    0,000
526,118;  227,514;  230,692;    0,000
526,702;  226,124;  228,549;    0,000
527,285;  230,249;  234,235;    0,000
527,868;  231,638;  235,863;    0,000
528,451;  232,316;  235,778;    0,000
529,035;  231,136;  235,535;    0,000
529,618;  229,411;  235,349;    0,000
530,201;  231,351;  235,935;    0,000
530,784;  232,527;  236,220;    0,000
531,367;  234,462;  237,549;    0,000
531,950;  234,657;  237,292;    0,000
532,533;  237,477;  241,720;    0,000
533,116;  243,645;  246,406;    0,000
533,699;  242,835;  243,663;    0,000
534,282;  240,094;  240,777;    0,000
534,865;  238,286;  240,935;    0,000
535,448;  232,130;  233,877;    0,000
536,030;  233,060;  234,178;    0,000
536,613;  230,039;  232,035;    0,000
537,196;  222,142;  226,078;    0,000
537,778;  222,643;  229,835;    0,000
538,361;  227,521;  232,420;    0,000
538,944;  229,811;  234,006;    0,000
539,526;  239,531;  241,906;    0,000
540,109;  243,895;  245,577;    0,000
540,691;  247,686;  246,777;    0,000
541,274;  255,140;  250,606;    0,000
541,856;  258,627;  251,163;    0,000
542,439;  261,772;  256,892;    0,000
543,021;  262,360;  255,963;    0,000
543,603;  260,874;  255,406;    0,000
544,186;  258,947;  253,463;    0,000
544,768;  259,692;  255,734;    0,000
545,350;  257,105;  256,677;    0,000
545,932;  255,731;  254,977;    0,000
546,515;  253,089;  252,463;    0,000
547,097;  252,977;  251,834;    0,000
547,679;  252,966;  251,249;    0,000
548,261;  254,335;  254,135;    0,000
548,843;  252,710;  251,320;    0,000
549,425;  252,455;  247,335;    0,000
550,007;  253,677;  247,949;    0,000
550,589;  252,946;  245,863;    0,000
551,171;  251,960;  245,906;    0,000
551,752;  246,321;  241,363;    0,000
552,334;  242,939;  235,992;    0,000
552,916;  242,022;  236,534;    0,000
553,498;  242,133;  235,834;    0,000
554,079;  238,006;  230,792;    0,000
554,661;  235,421;  229,620;    0,000
555,243;  237,696;  229,777;    0,000
555,824;  239,191;  229,820;    0,000
556,406;  239,298;  228,706;    0,000
556,987;  238,460;  224,263;    0,000
557,569;  236,299;  226,063;    0,000
558,150;  240,786;  232,249;    0,000
558,732;  245,833;  234,977;    0,000
559,313;  245,911;  234,477;    0,000
559,894;  243,525;  232,192;    0,000
560,476;  244,533;  232,906;    0,000
561,057;  243,727;  233,134;    0,000
561,638;  246,645;  233,577;    0,000
562,219;  241,854;  225,320;    0,000
562,801;  238,174;  221,820;    0,000
563,382;  239,801;  222,463;    0,000
563,963;  244,174;  225,749;    0,000
564,544;  244,716;  225,077;    0,000
565,125;  243,413;  221,963;    0,000
565,706;  245,566;  223,892;    0,000
566,287;  248,081;  226,534;    0,000
566,868;  246,314;  225,206;    0,000
567,449;  245,405;  226,092;    0,000
568,030;  244,386;  223,720;    0,000
568,610;  245,456;  224,892;    0,000
569,191;  249,029;  228,234;    0,000
569,772;  245,791;  225,320;    0,000
570,353;  244,632;  222,906;    0,000
570,933;  247,620;  224,720;    0,000
571,514;  244,597;  220,634;    0,000
572,094;  244,528;  219,763;    0,000
572,675;  242,472;  216,063;    0,000
573,256;  247,322;  217,249;    0,000
573,836;  246,694;  214,777;    0,000
574,417;  249,066;  216,820;    0,000
574,997;  253,585;  220,763;    0,000
575,577;  256,778;  223,035;    0,000
576,158;  261,645;  227,606;    0,000
576,738;  267,350;  232,863;    0,000
577,318;  265,874;  233,806;    0,000
577,898;  273,718;  237,677;    0,000
578,479;  273,638;  239,520;    0,000
579,059;  270,743;  233,292;    0,000
579,639;  275,109;  234,849;    0,000
580,219;  273,832;  232,549;    0,000
580,799;  269,663;  227,677;    0,000
581,379;  267,334;  224,149;    0,000
581,959;  265,351;  222,834;    0,000
582,539;  270,024;  225,663;    0,000
583,119;  271,188;  227,049;    0,000
583,699;  268,783;  225,777;    0,000
584,279;  269,829;  224,291;    0,000
584,859;  276,873;  229,434;    0,000
585,438;  278,023;  229,092;    0,000
586,018;  277,207;  228,649;    0,000
586,598;  276,383;  225,220;    0,000
587,177;  278,128;  224,249;    0,000
587,757;  282,335;  225,434;    0,000
588,337;  286,018;  226,892;    0,000
588,916;  286,505;  225,335;    0,000
589,496;  287,977;  224,563;    0,000
590,075;  291,908;  227,549;    0,000
590,654;  292,670;  227,477;    0,000
591,234;  293,231;  227,492;    0,000
591,813;  293,109;  224,549;    0,000
592,393;  290,378;  222,263;    0,000
592,972;  289,979;  220,320;    0,000
593,551;  294,956;  224,592;    0,000
594,130;  297,475;  223,392;    0,000
594,710;  302,403;  225,863;    0,000
595,289;  305,192;  226,021;    0,000
595,868;  306,257;  226,106;    0,000
596,447;  310,917;  229,377;    0,000
597,026;  313,969;  233,377;    0,000
597,605;  316,386;  233,077;    0,000
598,184;  312,771;  226,720;    0,000
598,763;  313,588;  226,363;    0,000
599,342;  315,394;  228,020;    0,000
599,920;  315,545;  227,935;    0,000
600,499;  319,628;  229,935;    0,000
601,078;  318,628;  226,963;    0,000
601,657;  318,462;  225,892;    0,000
602,236;  324,049;  231,506;    0,000
602,814;  323,339;  228,034;    0,000
603,393;  324,961;  227,320;    0,000
603,971;  330,823;  230,706;    0,000
604,550;  330,491;  228,949;    0,000
605,128;  331,705;  227,678;    0,000
605,707;  337,388;  232,063;    0,000
606,285;  336,762;  229,363;    0,000
606,864;  340,488;  235,678;    0,000
607,442;  344,744;  238,178;    0,000
608,020;  349,706;  243,206;    0,000
608,599;  353,332;  247,206;    0,000
609,177;  362,318;  259,549;    0,000
609,755;  360,531;  259,506;    0,000
610,333;  363,683;  263,435;    0,000
610,912;  368,811;  267,721;    0,000
611,490;  371,461;  268,678;    0,000
612,068;  368,928;  265,064;    0,000
612,646;  371,740;  264,907;    0,000
613,224;  371,725;  258,864;    0,000
613,802;  374,129;  254,378;    0,000
614,380;  376,118;  252,764;    0,000
614,958;  376,389;  246,435;    0,000
615,535;  372,784;  242,107;    0,000
616,113;  374,636;  239,492;    0,000
616,691;  372,873;  234,492;    0,000
617,269;  372,024;  229,807;    0,000
617,846;  373,054;  231,592;    0,000
618,424;  372,871;  228,307;    0,000
619,002;  373,115;  227,735;    0,000
619,579;  374,631;  228,635;    0,000
620,157;  378,822;  230,607;    0,000
620,734;  382,793;  233,793;    0,000
621,312;  383,723;  235,050;    0,000
621,889;  385,107;  233,207;    0,000
622,467;  388,316;  235,935;    0,000
623,044;  390,404;  237,493;    0,000
623,621;  394,295;  238,264;    0,000
624,198;  393,783;  236,035;    0,000
624,776;  391,435;  232,492;    0,000
625,353;  393,097;  231,193;    0,000
625,930;  393,308;  232,050;    0,000
626,507;  397,496;  232,178;    0,000
627,084;  399,676;  229,836;    0,000
627,661;  400,544;  226,978;    0,000
628,238;  403,155;  227,193;    0,000
628,815;  406,259;  227,364;    0,000
629,392;  408,252;  226,864;    0,000
629,969;  414,250;  229,936;    0,000
630,546;  418,435;  230,907;    0,000
631,123;  420,849;  233,536;    0,000
631,700;  423,661;  235,021;    0,000
632,276;  425,348;  233,564;    0,000
632,853;  431,184;  235,536;    0,000
633,430;  436,090;  236,522;    0,000
634,006;  436,620;  233,165;    0,000
634,583;  439,413;  232,979;    0,000
635,160;  440,560;  230,636;    0,000
635,736;  444,003;  230,479;    0,000
636,313;  441,899;  227,636;    0,000
636,889;  440,987;  226,365;    0,000
637,466;  443,748;  230,322;    0,000
638,042;  446,808;  231,679;    0,000
638,618;  443,942;  229,593;    0,000
639,194;  445,801;  226,265;    0,000
639,771;  446,506;  224,193;    0,000
640,347;  458,251;  231,536;    0,000
640,923;  461,849;  229,193;    0,000
641,499;  463,334;  225,650;    0,000
642,075;  466,633;  224,379;    0,000
642,651;  472,603;  224,979;    0,000
643,227;  477,987;  228,321;    0,000
643,803;  486,758;  232,336;    0,000
644,379;  487,942;  229,521;    0,000
644,955;  489,041;  229,036;    0,000
645,531;  492,783;  230,207;    0,000
646,107;  494,896;  231,221;    0,000
646,683;  493,652;  227,407;    0,000
647,259;  495,493;  226,507;    0,000
647,834;  494,106;  224,978;    0,000
648,410;  491,548;  222,407;    0,000
648,986;  495,804;  222,921;    0,000
649,561;  501,946;  224,221;    0,000
650,137;  505,073;  220,850;    0,000
650,712;  506,043;  222,107;    0,000
651,288;  512,271;  222,236;    0,000
651,863;  517,327;  223,893;    0,000
652,439;  523,640;  223,635;    0,000
653,014;  530,310;  225,121;    0,000
653,589;  527,594;  220,478;    0,000
654,165;  531,036;  221,807;    0,000
654,740;  538,149;  222,593;    0,000
655,315;  537,362;  220,650;    0,000
655,890;  544,990;  224,564;    0,000
656,465;  548,131;  222,878;    0,000
657,040;  545,987;  218,607;    0,000
657,616;  548,286;  215,378;    0,000
658,191;  552,213;  216,964;    0,000
658,766;  558,555;  218,935;    0,000
659,340;  561,254;  217,464;    0,000
659,915;  562,938;  214,678;    0,000
660,490;  566,023;  215,907;    0,000
661,065;  572,350;  218,321;    0,000
661,640;  577,178;  217,907;    0,000
662,215;  582,062;  216,335;    0,000
662,789;  588,018;  216,935;    0,000
663,364;  594,460;  218,078;    0,000
663,939;  595,901;  213,135;    0,000
664,513;  603,843;  215,878;    0,000
665,088;  609,599;  213,878;    0,000
665,662;  618,284;  218,521;    0,000
666,237;  626,897;  219,792;    0,000
666,811;  628,267;  215,949;    0,000
667,385;  635,351;  217,964;    0,000
667,960;  640,664;  217,635;    0,000
668,534;  645,806;  214,821;    0,000
669,108;  651,162;  215,835;    0,000
669,683;  654,075;  212,049;    0,000
670,257;  657,760;  208,821;    0,000
670,831;  664,301;  206,606;    0,000
671,405;  670,600;  206,049;    0,000
671,979;  677,270;  204,549;    0,000
672,553;  682,183;  204,863;    0,000
673,127;  690,254;  205,463;    0,000
673,701;  693,267;  203,578;    0,000
674,275;  698,051;  202,778;    0,000
674,849;  706,950;  205,663;    0,000
675,423;  710,906;  202,792;    0,000
675,997;  716,905;  204,120;    0,000
676,570;  723,789;  204,692;    0,000
677,144;  728,502;  203,692;    0,000
677,718;  743,973;  208,406;    0,000
678,292;  753,971;  210,792;    0,000
678,865;  759,285;  210,035;    0,000
679,439;  770,683;  212,649;    0,000
680,012;  779,925;  213,135;    0,000
680,586;  787,238;  212,277;    0,000
681,159;  798,766;  212,077;    0,000
681,733;  807,136;  212,735;    0,000
682,306;  813,035;  211,477;    0,000
682,879;  823,962;  212,549;    0,000
683,453;  830,961;  211,035;    0,000
684,026;  843,388;  212,492;    0,000
684,599;  854,215;  212,163;    0,000
685,172;  862,771;  214,749;    0,000
685,745;  868,242;  214,649;    0,000
686,318;  879,083;  214,606;    0,000
686,891;  887,453;  212,977;    0,000
687,464;  895,324;  215,749;    0,000
688,037;  902,708;  215,877;    0,000
688,610;  908,821;  214,549;    0,000
689,183;  915,363;  213,749;    0,000
689,756;  925,590;  213,049;    0,000
690,329;  932,618;  212,234;    0,000
690,902;  945,288;  214,563;    0,000
691,474;  953,044;  212,749;    0,000
692,047;  960,128;  209,991;    0,000
692,620;  975,242;  215,291;    0,000
693,192;  986,226;  216,191;    0,000
693,765;  997,425;  214,806;    0,000
694,337; 1006,052;  213,548;    0,000
694,910; 1013,022;  216,891;    0,000
695,482; 1025,693;  220,106;    0,000
696,055; 1034,477;  221,791;    0,000
696,627; 1045,505;  222,677;    0,000
697,199; 1049,846;  216,391;    0,000
697,772; 1056,245;  216,034;    0,000
698,344; 1067,901;  217,105;    0,000
698,916; 1076,585;  210,563;    0,000
699,488; 1089,756;  209,034;    0,000
700,060; 1106,255;  207,105;    0,000
700,633; 1116,010;  204,477;    0,000
701,205; 1132,138;  207,491;    0,000
701,777; 1148,165;  212,491;    0,000
702,349; 1160,564;  214,120;    0,000
702,920; 1174,349;  216,891;    0,000
703,492; 1182,662;  214,562;    0,000
704,064; 1189,775;  215,391;    0,000
704,636; 1200,445;  214,505;    0,000
705,208; 1212,472;  212,420;    0,000
705,779; 1223,571;  208,420;    0,000
706,351; 1237,441;  206,962;    0,000
706,923; 1246,797;  202,348;    0,000
707,494; 1266,825;  202,820;    0,000
708,066; 1282,995;  202,134;    0,000
708,638; 1294,737;  201,048;    0,000
709,209; 1311,207;  204,191;    0,000
709,780; 1323,063;  202,805;    0,000
710,352; 1335,062;  202,248;    0,000
710,923; 1356,560;  209,634;    0,000
711,494; 1365,688;  208,148;    0,000
712,066; 1384,301;  211,062;    0,000
712,637; 1398,242;  209,634;    0,000
713,208; 1411,041;  210,776;    0,000
713,779; 1430,526;  211,776;    0,000
714,350; 1450,382;  212,076;    0,000
714,922; 1461,438;  208,934;    0,000
715,492; 1480,965;  210,976;    0,000
716,064; 1490,635;  208,076;    0,000
716,634; 1512,220;  206,991;    0,000
717,205; 1534,890;  210,791;    0,000
717,776; 1551,732;  210,891;    0,000
718,347; 1570,759;  214,062;    0,000
718,918; 1591,372;  212,462;    0,000
719,489; 1605,685;  212,076;    0,000
720,059; 1628,398;  212,176;    0,000
720,630; 1645,026;  214,291;    0,000
721,201; 1660,482;  211,391;    0,000
721,771; 1676,080;  213,290;    0,000
722,342; 1694,494;  213,276;    0,000
722,912; 1711,649;  213,576;    0,000
723,483; 1730,720;  213,419;    0,000
724,053; 1747,461;  217,576;    0,000
724,623; 1764,289;  217,248;    0,000
725,194; 1783,516;  217,033;    0,000
725,764; 1809,601;  218,348;    0,000
726,334; 1826,742;  216,405;    0,000
726,904; 1841,898;  215,476;    0,000
727,475; 1867,140;  220,133;    0,000
728,045; 1885,996;  216,376;    0,000
728,615; 1905,509;  215,262;    0,000
729,185; 1927,451;  216,119;    0,000
729,755; 1938,978;  212,562;    0,000
730,325; 1955,305;  211,647;    0,000
730,895; 1979,304;  213,076;    0,000
731,465; 1989,403;  208,104;    0,000
732,034; 2008,545;  209,533;    0,000
732,604; 2033,301;  213,033;    0,000
733,174; 2047,814;  210,919;    0,000
733,744; 2072,169;  210,119;    0,000
734,313; 2096,811;  213,833;    0,000
734,883; 2112,781;  211,304;    0,000
735,453; 2141,952;  214,276;    0,000
736,022; 2160,893;  212,647;    0,000
736,592; 2182,578;  214,076;    0,000
737,161; 2210,805;  217,247;    0,000
737,731; 2238,261;  220,419;    0,000
738,300; 2252,989;  218,747;    0,000
738,869; 2279,316;  221,304;    0,000
739,439; 2293,286;  215,819;    0,000
740,008; 2319,828;  218,018;    0,000
740,577; 2341,184;  215,518;    0,000
741,146; 2358,525;  215,904;    0,000
741,715; 2367,524;  212,618;    0,000
742,284; 2396,409;  212,790;    0,000
742,853; 2415,350;  212,933;    0,000
743,422; 2441,678;  215,847;    0,000
743,991; 2462,777;  212,004;    0,000
744,560; 2481,718;  211,747;    0,000
745,129; 2505,260;  208,161;    0,000
745,698; 2535,544;  210,304;    0,000
746,267; 2554,943;  210,475;    0,000
746,836; 2583,042;  208,575;    0,000
747,404; 2609,912;  213,218;    0,000
747,973; 2634,197;  218,418;    0,000
748,542; 2658,653;  216,818;    0,000
749,110; 2680,780;  219,090;    0,000
749,679; 2697,365;  219,547;    0,000
750,247; 2718,235;  215,718;    0,000
750,816; 2739,919;  218,390;    0,000
751,384; 2759,347;  212,518;    0,000
751,952; 2780,245;  210,090;    0,000
752,521; 2801,701;  210,961;    0,000
753,089; 2827,029;  209,218;    0,000
753,657; 2856,613;  208,032;    0,000
754,225; 2883,455;  210,547;    0,000
754,794; 2910,197;  210,218;    0,000
755,362; 2936,095;  212,404;    0,000
755,930; 2965,037;  216,261;    0,000
756,498; 2983,750;  215,618;    0,000
757,066; 3005,735;  215,989;    0,000
757,634; 3029,305;  219,032;    0,000
758,202; 3054,789;  221,104;    0,000
758,769; 3077,374;  225,932;    0,000
759,337; 3098,201;  228,218;    0,000
759,905; 3109,257;  223,632;    0,000
760,473; 3137,270;  226,118;    0,000
761,041; 3150,555;  223,332;    0,000
761,608; 3165,197;  221,304;    0,000
762,176; 3186,681;  222,818;    0,000
762,743; 3204,223;  217,846;    0,000
763,311; 3221,993;  212,075;    0,000
763,878; 3247,363;  212,746;    0,000
764,446; 3268,433;  210,661;    0,000
765,013; 3301,246;  212,918;    0,000
765,581; 3330,045;  213,218;    0,000
766,148; 3352,087;  209,975;    0,000
766,715; 3376,143;  208,361;    0,000
767,282; 3403,199;  213,032;    0,000
767,849; 3429,583;  212,660;    0,000
768,417; 3453,582;  213,232;    0,000
768,984; 3471,081;  211,718;    0,000
769,551; 3489,637;  210,046;    0,000
770,118; 3508,364;  206,889;    0,000
770,685; 3527,435;  205,575;    0,000
771,252; 3547,076;  200,889;    0,000
771,819; 3567,832;  201,703;    0,000
772,385; 3583,988;  198,446;    0,000
772,952; 3601,887;  197,046;    0,000
773,519; 3626,214;  197,117;    0,000
774,086; 3647,613;  197,932;    0,000
774,652; 3669,097;  196,932;    0,000
775,219; 3685,939;  198,746;    0,000
775,786; 3707,509;  199,489;    0,000
776,352; 3733,180;  201,303;    0,000
776,919; 3769,093;  209,332;    0,000
777,485; 3792,606;  212,532;    0,000
778,051; 3817,276;  216,789;    0,000
778,618; 3835,632;  218,746;    0,000
779,184; 3854,145;  215,674;    0,000
779,750; 3874,901;  215,846;    0,000
780,317; 3895,514;  218,517;    0,000
780,883; 3909,584;  214,874;    0,000
781,449; 3930,126;  214,174;    0,000
782,015; 3953,710;  215,617;    0,000
782,581; 3980,424;  218,317;    0,000
783,147; 4009,351;  221,803;    0,000
783,713; 4028,135;  223,646;    0,000
784,279; 4049,263;  227,474;    0,000
784,845; 4063,733;  226,131;    0,000
785,411; 4082,375;  228,474;    0,000
785,977; 4089,474;  223,503;    0,000
786,542; 4101,444;  224,231;    0,000
787,108; 4112,786;  225,088;    0,000
787,674; 4134,484;  223,146;    0,000
788,239; 4150,269;  221,131;    0,000
788,805; 4168,753;  222,660;    0,000
789,371; 4179,409;  222,760;    0,000
789,936; 4196,365;  221,217;    0,000
790,501; 4215,350;  221,631;    0,000
791,067; 4233,948;  221,617;    0,000
791,632; 4238,562;  218,945;    0,000
792,198; 4254,917;  219,488;    0,000
792,763; 4264,273;  217,431;    0,000
793,328; 4278,558;  214,231;    0,000
793,893; 4293,585;  215,360;    0,000
794,458; 4303,570;  211,674;    0,000
795,024; 4322,226;  211,045;    0,000
795,589; 4341,510;  211,545;    0,000
796,154; 4354,038;  208,717;    0,000
796,719; 4373,865;  208,645;    0,000
797,284; 4391,307;  210,217;    0,000
797,848; 4410,005;  209,745;    0,000
798,413; 4425,961;  214,088;    0,000
798,978; 4436,731;  217,388;    0,000
799,543; 4449,845;  217,588;    0,000
800,108; 4467,658;  219,531;    0,000
800,672; 4480,885;  221,131;    0,000
801,237; 4494,984;  219,088;    0,000
801,801; 4510,983;  224,417;    0,000
802,366; 4533,310;  221,888;    0,000
802,930; 4546,052;  218,831;    0,000
803,495; 4565,437;  224,145;    0,000
804,059; 4572,764;  222,874;    0,000
804,624; 4585,863;  221,659;    0,000
805,188; 4598,718;  223,702;    0,000
805,752; 4611,003;  221,974;    0,000
806,317; 4615,202;  221,788;    0,000
806,881; 4628,558;  223,131;    0,000
807,445; 4640,514;  216,816;    0,000
808,009; 4655,241;  220,302;    0,000
808,573; 4676,397;  221,559;    0,000
809,137; 4693,125;  221,402;    0,000
809,701; 4704,066;  221,616;    0,000
810,265; 4720,822;  220,688;    0,000
810,829; 4735,250;  216,388;    0,000
811,393; 4742,505;  217,116;    0,000
811,956; 4756,161;  213,416;    0,000
812,520; 4767,860;  212,188;    0,000
813,084; 4772,673;  208,659;    0,000
813,647; 4793,815;  205,902;    0,000
814,211; 4812,871;  206,116;    0,000
814,775; 4832,241;  207,559;    0,000
815,338; 4856,668;  209,459;    0,000
815,902; 4885,410;  209,330;    0,000
816,465; 4902,337;  210,245;    0,000
817,029; 4933,079;  213,345;    0,000
817,592; 4941,535;  214,130;    0,000
818,155; 4952,962;  219,102;    0,000
818,718; 4964,961;  221,730;    0,000
819,282; 4972,789;  221,345;    0,000
819,845; 4979,902;  224,187;    0,000
820,408; 4991,815;  225,659;    0,000
820,971; 5004,285;  226,116;    0,000
821,534; 5024,955;  230,387;    0,000
822,097; 5038,354;  227,145;    0,000
822,660; 5050,795;  228,587;    0,000
823,223; 5067,137;  227,216;    0,000
823,786; 5071,036;  225,959;    0,000
824,349; 5079,806;  224,387;    0,000
824,911; 5074,577;  219,687;    0,000
825,474; 5076,632;  217,430;    0,000
826,037; 5083,331;  219,573;    0,000
826,599; 5092,673;  221,673;    0,000
827,162; 5096,814;  222,673;    0,000
827,724; 5101,914;  220,873;    0,000
828,287; 5117,412;  223,359;    0,000
828,849; 5134,839;  225,773;    0,000
829,412; 5144,281;  225,916;    0,000
829,974; 5154,723;  226,630;    0,000
830,536; 5159,979;  221,630;    0,000
831,099; 5175,963;  219,930;    0,000
831,661; 5192,634;  222,501;    0,000
832,223; 5193,132;  220,516;    0,000
832,785; 5203,974;  218,044;    0,000
833,347; 5214,659;  216,258;    0,000
833,909; 5225,372;  213,658;    0,000
834,471; 5247,385;  218,544;    0,000
835,033; 5254,312;  220,444;    0,000
835,595; 5272,111;  222,887;    0,000
836,157; 5289,538;  224,758;    0,000
836,719; 5296,737;  226,344;    0,000
837,281; 5310,064;  226,244;    0,000
837,842; 5326,063;  230,130;    0,000
838,404; 5331,148;  227,615;    0,000
838,966; 5340,761;  225,501;    0,000
839,527; 5345,688;  217,387;    0,000
840,089; 5355,244;  212,530;    0,000
840,650; 5372,814;  213,287;    0,000
841,212; 5389,256;  212,330;    0,000
841,773; 5396,555;  207,844;    0,000
842,335; 5409,711;  204,958;    0,000
842,896; 5417,867;  205,144;    0,000
843,457; 5439,537;  208,101;    0,000
844,018; 5467,779;  212,244;    0,000
844,580; 5483,606;  213,601;    0,000
845,141; 5494,248;  212,401;    0,000
845,702; 5512,218;  211,844;    0,000
846,263; 5526,045;  212,315;    0,000
846,824; 5544,116;  211,787;    0,000
847,385; 5555,229;  211,958;    0,000
847,946; 5548,699;  208,801;    0,000
848,507; 5560,783;  210,215;    0,000
849,068; 5574,925;  207,958;    0,000
849,628; 5586,095;  203,158;    0,000
850,189; 5591,680;  199,515;    0,000
850,750; 5602,321;  201,586;    0,000
851,310; 5615,792;  200,058;    0,000
851,871; 5629,104;  200,001;    0,000
852,432; 5636,846;  195,144;    0,000
852,992; 5647,959;  201,329;    0,000
853,552; 5660,201;  202,686;    0,000
854,113; 5674,757;  206,858;    0,000
854,673; 5696,899;  204,643;    0,000
855,234; 5706,826;  204,786;    0,000
855,794; 5729,068;  210,686;    0,000
856,354; 5746,681;  210,286;    0,000
856,914; 5765,623;  207,915;    0,000
857,474; 5786,350;  209,786;    0,000
858,034; 5816,149;  209,858;    0,000
858,595; 5839,019;  213,458;    0,000
859,155; 5859,575;  213,015;    0,000
859,714; 5876,702;  207,800;    0,000
860,274; 5897,729;  210,115;    0,000
860,834; 5914,643;  208,658;    0,000
861,394; 5918,941;  209,858;    0,000
861,954; 5928,740;  210,472;    0,000
862,514; 5937,025;  209,243;    0,000
863,073; 5955,881;  212,086;    0,000
863,633; 5967,708;  210,843;    0,000
864,192; 5969,564;  208,229;    0,000
864,752; 5979,191;  206,757;    0,000
865,311; 6006,705;  205,300;    0,000
865,871; 6023,561;  201,572;    0,000
866,430; 6038,359;  200,000;    0,000
866,990; 6044,029;  197,857;    0,000
867,549; 6057,585;  196,529;    0,000
868,108; 6083,599;  198,657;    0,000
868,667; 6104,769;  201,500;    0,000
869,227; 6118,510;  203,014;    0,000
869,786; 6129,781;  205,643;    0,000
870,345; 6142,465;  204,572;    0,000
870,904; 6153,407;  199,229;    0,000
871,463; 6163,591;  200,000;    0,000
872,022; 6189,133;  201,257;    0,000
872,581; 6205,018;  198,114;    0,000
873,140; 6211,130;  194,157;    0,000
873,698; 6229,429;  191,771;    0,000
874,257; 6242,557;  193,129;    0,000
874,816; 6263,728;  194,957;    0,000
875,374; 6296,885;  193,657;    0,000
875,933; 6305,885;  190,514;    0,000
876,492; 6322,371;  194,557;    0,000
877,050; 6350,542;  194,471;    0,000
877,609; 6378,571;  195,200;    0,000
878,167; 6409,914;  191,029;    0,000
878,725; 6433,485;  194,157;    0,000
879,284; 6456,728;  199,443;    0,000
879,842; 6477,314;  195,786;    0,000
880,400; 6503,385;  194,943;    0,000
880,958; 6528,143;  195,043;    0,000
881,517; 6548,157;  196,829;    0,000
882,075; 6572,385;  200,986;    0,000
882,633; 6600,700;  198,929;    0,000
883,191; 6633,357;  196,043;    0,000
883,749; 6668,500;  199,757;    0,000
884,307; 6700,128;  201,371;    0,000
884,865; 6728,957;  203,943;    0,000
885,422; 6762,285;  202,986;    0,000
885,980; 6800,357;  205,257;    0,000
886,538; 6830,657;  206,586;    0,000
887,095; 6850,385;  206,914;    0,000
887,653; 6876,000;  204,743;    0,000
888,211; 6908,743;  207,300;    0,000
888,768; 6938,857;  208,000;    0,000
889,326; 6965,614;  208,129;    0,000
889,883; 6985,071;  205,600;    0,000
890,441; 7017,528;  204,671;    0,000
890,998; 7048,442;  208,143;    0,000
891,555; 7076,428;  215,100;    0,000
892,112; 7090,385;  210,614;    0,000
892,670; 7128,399;  213,271;    0,000
893,227; 7148,000;  210,914;    0,000
893,784; 7174,200;  210,986;    0,000
894,341; 7194,500;  215,586;    0,000
894,898; 7207,600;  213,829;    0,000
895,455; 7224,357;  212,043;    0,000
896,012; 7239,500;  211,657;    0,000
896,569; 7235,271;  209,643;    0,000
897,126; 7248,385;  213,386;    0,000
897,682; 7254,342;  213,429;    0,000
898,239; 7262,243;  212,400;    0,000
898,796; 7271,657;  212,557;    0,000
899,352; 7275,200;  211,557;    0,000
899,909; 7291,200;  213,743;    0,000
900,466; 7306,357;  214,857;    0,000
901,022; 7316,885;  216,971;    0,000
901,579; 7324,399;  216,843;    0,000
902,135; 7330,257;  212,614;    0,000
902,691; 7338,228;  213,471;    0,000
903,248; 7343,785;  212,471;    0,000
903,804; 7345,885;  209,729;    0,000
904,360; 7347,814;  209,886;    0,000
904,916; 7355,600;  207,929;    0,000
905,472; 7361,728;  210,529;    0,000
906,028; 7367,057;  212,971;    0,000
906,584; 7375,771;  210,543;    0,000
907,140; 7386,557;  210,457;    0,000
907,696; 7396,485;  210,314;    0,000
908,252; 7405,842;  208,843;    0,000
908,808; 7409,828;  207,071;    0,000
909,364; 7416,157;  206,514;    0,000
909,920; 7424,200;  207,514;    0,000
910,475; 7428,042;  207,671;    0,000
911,031; 7439,085;  208,000;    0,000
911,587; 7448,614;  206,443;    0,000
912,142; 7450,114;  206,114;    0,000
912,698; 7463,743;  206,100;    0,000
913,253; 7472,128;  201,814;    0,000
913,808; 7485,214;  201,729;    0,000
914,364; 7492,914;  199,386;    0,000
914,919; 7501,671;  202,471;    0,000
915,474; 7510,828;  207,086;    0,000
916,030; 7526,500;  205,857;    0,000
916,585; 7525,657;  207,214;    0,000
917,140; 7543,371;  208,057;    0,000
917,695; 7553,228;  205,657;    0,000
918,250; 7566,285;  206,371;    0,000
918,805; 7574,785;  201,357;    0,000
919,360; 7585,557;  198,986;    0,000
919,915; 7607,300;  200,171;    0,000
920,469; 7629,657;  200,386;    0,000
921,024; 7635,371;  199,814;    0,000
921,579; 7645,542;  201,971;    0,000
922,134; 7666,571;  201,729;    0,000
922,688; 7684,657;  205,657;    0,000
923,243; 7703,457;  209,543;    0,000
923,797; 7702,171;  208,443;    0,000
924,352; 7714,085;  208,786;    0,000
924,906; 7722,528;  210,929;    0,000
925,461; 7726,842;  210,800;    0,000
926,015; 7721,514;  208,329;    0,000
926,569; 7719,328;  204,857;    0,000
927,124; 7716,899;  204,686;    0,000
927,678; 7730,743;  207,986;    0,000
928,232; 7733,371;  208,729;    0,000
928,786; 7742,228;  209,143;    0,000
929,340; 7755,899;  211,914;    0,000
929,894; 7763,285;  212,543;    0,000
930,448; 7775,928;  214,843;    0,000
931,002; 7783,399;  214,729;    0,000
931,556; 7787,228;  212,443;    0,000
932,110; 7784,285;  208,286;    0,000
932,663; 7788,342;  208,514;    0,000
933,217; 7796,714;  205,686;    0,000
933,771; 7806,714;  208,343;    0,000
934,324; 7814,871;  206,286;    0,000
934,878; 7815,614;  201,157;    0,000
935,432; 7824,385;  202,514;    0,000
935,985; 7834,500;  204,286;    0,000
936,538; 7842,500;  204,214;    0,000
937,092; 7848,114;  202,757;    0,000
937,645; 7850,914;  201,729;    0,000
938,198; 7852,700;  205,800;    0,000
938,752; 7878,814;  209,871;    0,000
939,305; 7882,928;  212,057;    0,000
939,858; 7898,557;  212,114;    0,000
940,411; 7904,000;  214,443;    0,000
940,964; 7897,143;  216,486;    0,000
941,517; 7905,114;  218,729;    0,000
942,070; 7905,557;  218,443;    0,000
942,623; 7886,942;  217,186;    0,000
943,176; 7889,057;  215,529;    0,000
943,728; 7886,899;  215,586;    0,000
944,281; 7879,114;  210,157;    0,000
944,834; 7886,385;  210,443;    0,000
945,387; 7888,157;  207,214;    0,000
945,939; 7897,671;  205,114;    0,000
946,492; 7908,485;  205,143;    0,000
947,044; 7902,600;  203,757;    0,000
947,597; 7902,399;  203,514;    0,000
948,149; 7910,700;  205,286;    0,000
948,701; 7924,042;  203,514;    0,000
949,254; 7930,514;  207,557;    0,000
949,806; 7931,714;  207,900;    0,000
950,358; 7936,757;  208,786;    0,000
950,910; 7941,143;  207,943;    0,000
951,462; 7940,057;  206,043;    0,000
952,014; 7946,328;  208,657;    0,000
952,566; 7924,942;  207,143;    0,000
953,118; 7910,028;  206,486;    0,000
953,670; 7894,342;  205,100;    0,000
954,222; 7879,714;  202,457;    0,000
954,774; 7874,271;  203,357;    0,000
955,326; 7868,928;  204,314;    0,000
955,877; 7857,700;  203,571;    0,000
956,429; 7866,643;  207,714;    0,000
956,981; 7868,000;  207,343;    0,000
957,532; 7872,186;  207,314;    0,000
958,084; 7870,743;  207,986;    0,000
958,635; 7875,800;  209,729;    0,000
959,187; 7871,714;  211,943;    0,000
959,738; 7870,314;  211,371;    0,000
960,289; 7869,600;  211,629;    0,000
960,840; 7863,143;  208,471;    0,000
961,392; 7867,014;  212,014;    0,000
961,943; 7860,657;  210,700;    0,000
962,494; 7858,700;  208,157;    0,000
963,045; 7858,671;  205,386;    0,000
963,596; 7853,471;  207,114;    0,000
964,147; 7835,186;  204,643;    0,000
964,698; 7832,042;  206,829;    0,000
965,249; 7823,014;  205,843;    0,000
965,800; 7819,085;  205,357;    0,000
966,350; 7809,957;  207,714;    0,000
966,901; 7793,885;  205,414;    0,000
967,452; 7778,885;  201,671;    0,000
968,002; 7767,085;  203,143;    0,000
968,553; 7756,557;  203,243;    0,000
969,103; 7737,743;  199,829;    0,000
969,654; 7727,614;  200,971;    0,000
970,204; 7704,714;  196,071;    0,000
970,755; 7693,414;  201,929;    0,000
971,305; 7681,771;  198,600;    0,000
971,855; 7674,357;  199,529;    0,000
972,405; 7663,328;  200,386;    0,000
972,956; 7652,899;  202,300;    0,000
973,506; 7630,743;  200,243;    0,000
974,056; 7620,186;  205,757;    0,000
974,606; 7614,743;  204,800;    0,000
975,156; 7615,243;  212,000;    0,000
975,706; 7617,885;  210,557;    0,000
976,255; 7606,071;  208,914;    0,000
976,805; 7592,928;  203,643;    0,000
977,355; 7587,757;  202,271;    0,000
977,905; 7577,657;  198,400;    0,000
978,454; 7565,643;  193,571;    0,000
979,004; 7551,942;  190,200;    0,000
979,554; 7526,414;  183,971;    0,000
980,103; 7508,657;  183,571;    0,000
980,653; 7496,314;  188,286;    0,000
981,202; 7480,471;  191,814;    0,000
981,751; 7467,971;  192,229;    0,000
982,301; 7440,057;  193,257;    0,000
982,850; 7425,600;  195,100;    0,000
983,399; 7409,285;  199,629;    0,000
983,948; 7390,571;  197,286;    0,000
984,497; 7376,357;  196,686;    0,000
985,047; 7363,228;  197,186;    0,000
985,596; 7344,171;  192,486;    0,000
986,144; 7335,757;  192,314;    0,000
986,693; 7313,428;  189,443;    0,000
987,242; 7297,085;  188,129;    0,000
987,791; 7278,399;  188,286;    0,000
988,340; 7260,457;  186,943;    0,000
988,888; 7236,071;  185,471;    0,000
989,437; 7211,942;  189,371;    0,000
989,986; 7185,171;  188,657;    0,000
990,534; 7159,757;  191,471;    0,000
991,083; 7134,885;  190,871;    0,000
991,631; 7124,971;  196,000;    0,000
992,180; 7097,771;  195,171;    0,000
992,728; 7084,357;  197,200;    0,000
993,276; 7070,500;  198,900;    0,000
993,825; 7054,128;  202,886;    0,000
994,373; 7032,100;  202,086;    0,000
994,921; 7009,571;  204,029;    0,000
995,469; 6977,243;  200,571;    0,000
996,017; 6954,928;  203,457;    0,000
996,565; 6924,857;  200,757;    0,000
997,113; 6898,899;  197,871;    0,000
997,661; 6871,585;  199,429;    0,000
998,209; 6844,271;  197,343;    0,000
998,757; 6824,757;  198,371;    0,000
999,304; 6803,671;  203,157;    0,000
999,852; 6780,457;  201,429;    0,000
1000,400; 6749,071;  203,300;    0,000
1000,947; 6721,628;  205,343;    0,000
1001,495; 6697,500;  203,743;    0,000
1002,042; 6666,842;  206,457;    0,000
1002,590; 6640,157;  206,086;    0,000
1003,137; 6614,500;  204,214;    0,000
1003,684; 6588,385;  208,486;    0,000
1004,232; 6563,257;  208,729;    0,000
1004,779; 6521,399;  208,643;    0,000
1005,326; 6483,200;  206,757;    0,000
1005,873; 6454,399;  207,143;    0,000
1006,420; 6418,585;  211,114;    0,000
1006,967; 6381,171;  206,957;    0,000
1007,514; 6346,014;  203,314;    0,000
1008,061; 6324,757;  201,657;    0,000
1008,608; 6302,671;  203,329;    0,000
1009,155; 6279,614;  207,614;    0,000
1009,702; 6255,728;  205,000;    0,000
1010,248; 6231,143;  202,100;    0,000
1010,795; 6203,957;  204,300;    0,000
1011,342; 6178,842;  208,243;    0,000
1011,888; 6142,743;  210,971;    0,000
1012,435; 6114,385;  210,100;    0,000
1012,981; 6081,457;  208,757;    0,000
1013,528; 6053,743;  211,629;    0,000
1014,074; 6019,585;  213,329;    0,000
1014,620; 5999,285;  216,514;    0,000
1015,166; 5983,414;  216,100;    0,000
1015,713; 5965,728;  215,086;    0,000
1016,259; 5947,857;  214,414;    0,000
1016,805; 5934,600;  212,086;    0,000
1017,351; 5924,399;  210,986;    0,000
1017,897; 5916,471;  207,929;    0,000
1018,443; 5892,628;  203,700;    0,000
1018,989; 5858,585;  201,800;    0,000
1019,535; 5828,371;  202,029;    0,000
1020,080; 5796,585;  201,886;    0,000
1020,626; 5765,600;  204,200;    0,000
1021,172; 5724,528;  203,843;    0,000
1021,717; 5668,728;  202,200;    0,000
1022,263; 5628,085;  206,886;    0,000
1022,809; 5584,357;  206,486;    0,000
1023,354; 5540,728;  209,643;    0,000
1023,900; 5497,928;  205,900;    0,000
1024,445; 5449,442;  202,114;    0,000
1024,990; 5392,314;  201,914;    0,000
1025,536; 5346,442;  203,629;    0,000
1026,081; 5289,700;  198,914;    0,000
1026,626; 5240,328;  197,157;    0,000
1027,171; 5192,485;  194,043;    0,000
1027,716; 5141,128;  198,900;    0,000
1028,261; 5089,414;  198,414;    0,000
1028,806; 5049,399;  199,357;    0,000
1029,351; 5007,971;  199,557;    0,000
1029,896; 4970,571;  204,486;    0,000
1030,441; 4931,186;  204,186;    0,000
1030,985; 4884,485;  202,729;    0,000
1031,530; 4836,828;  199,843;    0,000
1032,075; 4797,514;  199,386;    0,000
1032,619; 4756,514;  202,371;    0,000
1033,164; 4709,342;  199,014;    0,000
1033,708; 4659,585;  196,229;    0,000
1034,253; 4608,785;  195,171;    0,000
1034,797; 4564,614;  196,900;    0,000
1035,341; 4524,500;  196,300;    0,000
1035,886; 4482,285;  198,214;    0,000
1036,430; 4445,842;  194,886;    0,000
1036,974; 4413,228;  200,843;    0,000
1037,518; 4374,500;  199,957;    0,000
1038,062; 4337,842;  200,200;    0,000
1038,606; 4303,057;  198,786;    0,000
1039,150; 4262,914;  198,700;    0,000
1039,694; 4222,071;  199,443;    0,000
1040,238; 4174,585;  197,314;    0,000
1040,782; 4132,442;  193,514;    0,000
1041,326; 4094,314;  195,229;    0,000
1041,869; 4057,085;  200,443;    0,000
1042,413; 4016,685;  202,686;    0,000
1042,957; 3987,643;  206,229;    0,000
1043,500; 3949,585;  205,186;    0,000
1044,044; 3911,057;  206,314;    0,000
1044,587; 3867,757;  205,671;    0,000
1045,130; 3832,671;  207,600;    0,000
1045,674; 3792,200;  203,986;    0,000
1046,217; 3757,285;  207,171;    0,000
1046,760; 3711,514;  205,400;    0,000
1047,304; 3673,128;  203,957;    0,000
1047,847; 3635,257;  206,157;    0,000
1048,390; 3605,157;  208,329;    0,000
1048,933; 3569,514;  205,200;    0,000
1049,476; 3537,428;  208,371;    0,000
1050,019; 3498,271;  206,486;    0,000
1050,562; 3469,300;  206,114;    0,000
1051,104; 3431,343;  209,886;    0,000
1051,647; 3403,328;  213,986;    0,000
1052,190; 3368,057;  215,529;    0,000
1052,732; 3331,542;  214,014;    0,000
1053,275; 3284,314;  208,643;    0,000
1053,818; 3251,028;  204,271;    0,000
1054,360; 3207,514;  205,571;    0,000
1054,902; 3179,314;  205,771;    0,000
1055,445; 3133,314;  198,400;    0,000
1055,987; 3102,271;  200,657;    0,000
1056,530; 3068,871;  203,357;    0,000
1057,072; 3041,643;  206,900;    0,000
1057,614; 3001,557;  204,957;    0,000
1058,156; 2977,685;  207,871;    0,000
1058,698; 2934,714;  205,343;    0,000
1059,240; 2910,257;  209,257;    0,000
1059,782; 2869,785;  204,786;    0,000
1060,324; 2835,771;  202,243;    0,000
1060,866; 2803,371;  204,014;    0,000
1061,408; 2775,242;  209,786;    0,000
1061,949; 2741,185;  208,729;    0,000
1062,491; 2711,314;  209,857;    0,000
1063,033; 2680,643;  209,486;    0,000
1063,574; 2649,814;  209,071;    0,000
1064,116; 2616,257;  208,843;    0,000
1064,657; 2591,585;  207,271;    0,000
1065,199; 2566,600;  207,314;    0,000
1065,740; 2537,071;  206,343;    0,000
1066,281; 2517,957;  208,214;    0,000
1066,823; 2490,042;  203,557;    0,000
1067,364; 2472,585;  209,071;    0,000
1067,905; 2456,685;  212,771;    0,000
1068,446; 2431,343;  211,871;    0,000
1068,987; 2409,942;  209,557;    0,000
1069,528; 2388,871;  210,071;    0,000
1070,069; 2366,542;  213,629;    0,000
1070,610; 2340,828;  215,843;    0,000
1071,151; 2319,228;  210,871;    0,000
1071,692; 2297,228;  209,571;    0,000
1072,232; 2275,957;  208,329;    0,000
1072,773; 2256,214;  209,271;    0,000
1073,314; 2234,700;  207,229;    0,000
1073,854; 2214,628;  203,714;    0,000
1074,395; 2198,414;  204,443;    0,000
1074,935; 2174,271;  205,757;    0,000
1075,476; 2154,671;  204,171;    0,000
1076,016; 2137,928;  205,471;    0,000
1076,556; 2116,900;  205,529;    0,000
1077,097; 2099,057;  207,929;    0,000
1077,637; 2082,143;  207,157;    0,000
1078,177; 2063,871;  205,457;    0,000
1078,717; 2046,685;  206,157;    0,000
1079,257; 2026,700;  208,414;    0,000
1079,797; 2009,228;  212,700;    0,000
1080,337; 1991,714;  213,114;    0,000
1080,877; 1973,914;  210,571;    0,000
1081,417; 1951,485;  208,643;    0,000
1081,956; 1931,557;  208,014;    0,000
1082,496; 1914,557;  204,657;    0,000
1083,036; 1898,743;  204,514;    0,000
1083,575; 1882,471;  199,457;    0,000
1084,115; 1862,057;  196,371;    0,000
1084,655; 1847,228;  197,114;    0,000
1085,194; 1839,428;  200,114;    0,000
1085,733; 1825,628;  201,643;    0,000
1086,273; 1811,871;  204,229;    0,000
1086,812; 1798,957;  206,129;    0,000
1087,351; 1783,514;  209,457;    0,000
1087,890; 1770,585;  209,457;    0,000
1088,429; 1757,185;  210,943;    0,000
1088,969; 1736,485;  207,414;    0,000
1089,507; 1720,542;  208,514;    0,000
1090,047; 1705,443;  208,529;    0,000
1090,585; 1685,100;  203,600;    0,000
1091,124; 1667,714;  201,400;    0,000
1091,663; 1650,714;  203,414;    0,000
1092,202; 1633,414;  204,186;    0,000
1092,740; 1619,971;  207,100;    0,000
1093,279; 1604,128;  204,657;    0,000
1093,818; 1587,571;  203,186;    0,000
1094,356; 1572,971;  204,686;    0,000
1094,895; 1558,300;  205,186;    0,000
1095,433; 1544,243;  203,586;    0,000
1095,971; 1530,857;  203,143;    0,000
1096,510; 1513,671;  201,000;    0,000
1097,048; 1501,400;  201,457;    0,000
1097,586; 1487,443;  202,757;    0,000
1098,124; 1473,885;  205,171;    0,000
1098,662; 1461,371;  206,129;    0,000
1099,200; 1449,757;  206,814;    0,000
1099,738; 1432,471;  206,286;    0,000
1100,276; 1421,843;  210,357;    0,000

