
Integration time [ms]:   0,050
Averaging Nr. [scans]: 10
Smoothing Nr. [pixels]: 3
Data measured with spectrometer [name]: 7516255SP
Wave   ;Sample   ;Dark     ;Reference
[nm]   ;[counts] ;[counts] ;[counts] 

177,000;  16,040;    0,000;    0,000
177,600;  16,549;    0,000;    0,000
178,200;  17,070;    0,000;    0,000
178,800;  17,603;    0,000;    0,000
179,400;  18,147;    0,000;    0,000
180,000;  18,704;    0,000;    0,000
180,600;  19,272;    0,000;    0,000
181,200;  19,853;    0,000;    0,000
181,800;  20,446;    0,000;    0,000
182,400;  21,052;    0,000;    0,000
183,000;  21,671;    0,000;    0,000
183,600;  22,302;    0,000;    0,000
184,200;  22,946;    0,000;    0,000
184,800;  23,603;    0,000;    0,000
185,400;  24,273;    0,000;    0,000
186,000;  24,956;    0,000;    0,000
186,600;  25,653;    0,000;    0,000
187,200;  26,363;    0,000;    0,000
187,800;  27,087;    0,000;    0,000
188,400;  27,824;    0,000;    0,000
189,000;  28,575;    0,000;    0,000
189,600;  29,340;    0,000;    0,000
190,200;  30,119;    0,000;    0,000
190,800;  30,912;    0,000;    0,000
191,400;  31,719;    0,000;    0,000
192,000;  32,540;    0,000;    0,000
192,600;  33,376;    0,000;    0,000
193,200;  34,226;    0,000;    0,000
193,800;  35,090;    0,000;    0,000
194,400;  35,969;    0,000;    0,000
195,000;  36,863;    0,000;    0,000
195,600;  37,771;    0,000;    0,000
196,200;  38,695;    0,000;    0,000
196,800;  39,633;    0,000;    0,000
197,400;  40,586;    0,000;    0,000
198,000;  41,554;    0,000;    0,000
198,600;  42,537;    0,000;    0,000
199,200;  43,536;    0,000;    0,000
199,800;  44,549;    0,000;    0,000
200,400;  45,578;    0,000;    0,000
201,000;  46,623;    0,000;    0,000
201,600;  47,682;    0,000;    0,000
202,200;  48,757;    0,000;    0,000
202,800;  49,848;    0,000;    0,000
203,400;  50,954;    0,000;    0,000
204,000;  52,075;    0,000;    0,000
204,600;  53,212;    0,000;    0,000
205,200;  54,365;    0,000;    0,000
205,800;  55,533;    0,000;    0,000
206,400;  56,718;    0,000;    0,000
207,000;  57,917;    0,000;    0,000
207,600;  59,133;    0,000;    0,000
208,200;  60,364;    0,000;    0,000
208,800;  61,612;    0,000;    0,000
209,400;  62,874;    0,000;    0,000
210,000;  64,153;    0,000;    0,000
210,600;  65,448;    0,000;    0,000
211,200;  66,758;    0,000;    0,000
211,800;  68,085;    0,000;    0,000
212,400;  69,427;    0,000;    0,000
213,000;  70,785;    0,000;    0,000
213,600;  72,159;    0,000;    0,000
214,200;  73,549;    0,000;    0,000
214,800;  74,954;    0,000;    0,000
215,400;  76,376;    0,000;    0,000
216,000;  77,813;    0,000;    0,000
216,600;  79,266;    0,000;    0,000
217,200;  80,735;    0,000;    0,000
217,800;  82,220;    0,000;    0,000
218,400;  83,720;    0,000;    0,000
219,000;  85,236;    0,000;    0,000
219,600;  86,768;    0,000;    0,000
220,200;  88,315;    0,000;    0,000
220,800;  89,879;    0,000;    0,000
221,400;  91,457;    0,000;    0,000
222,000;  93,052;    0,000;    0,000
222,600;  94,661;    0,000;    0,000
223,200;  96,287;    0,000;    0,000
223,800;  97,927;    0,000;    0,000
224,400;  99,584;    0,000;    0,000
225,000;  101,255;    0,000;    0,000
225,600;  102,942;    0,000;    0,000
226,200;  104,644;    0,000;    0,000
226,800;  106,361;    0,000;    0,000
227,400;  108,093;    0,000;    0,000
228,000;  109,841;    0,000;    0,000
228,600;  111,603;    0,000;    0,000
229,200;  113,380;    0,000;    0,000
229,800;  115,172;    0,000;    0,000
230,400;  116,979;    0,000;    0,000
231,000;  118,801;    0,000;    0,000
231,600;  120,637;    0,000;    0,000
232,200;  122,488;    0,000;    0,000
232,800;  124,354;    0,000;    0,000
233,400;  126,234;    0,000;    0,000
234,000;  128,128;    0,000;    0,000
234,600;  130,036;    0,000;    0,000
235,200;  131,959;    0,000;    0,000
235,800;  133,895;    0,000;    0,000
236,400;  135,846;    0,000;    0,000
237,000;  137,811;    0,000;    0,000
237,600;  139,789;    0,000;    0,000
238,200;  141,781;    0,000;    0,000
238,800;  143,787;    0,000;    0,000
239,400;  145,806;    0,000;    0,000
240,000;  147,839;    0,000;    0,000
240,600;  149,885;    0,000;    0,000
241,200;  151,944;    0,000;    0,000
241,800;  154,016;    0,000;    0,000
242,400;  156,101;    0,000;    0,000
243,000;  158,199;    0,000;    0,000
243,600;  160,310;    0,000;    0,000
244,200;  162,434;    0,000;    0,000
244,800;  164,570;    0,000;    0,000
245,400;  166,719;    0,000;    0,000
246,000;  168,880;    0,000;    0,000
246,600;  171,053;    0,000;    0,000
247,200;  173,238;    0,000;    0,000
247,800;  175,436;    0,000;    0,000
248,400;  177,645;    0,000;    0,000
249,000;  179,866;    0,000;    0,000
249,600;  182,098;    0,000;    0,000
250,200;  184,342;    0,000;    0,000
250,800;  186,598;    0,000;    0,000
251,400;  188,864;    0,000;    0,000
252,000;  191,142;    0,000;    0,000
252,600;  193,431;    0,000;    0,000
253,200;  195,730;    0,000;    0,000
253,800;  198,040;    0,000;    0,000
254,400;  200,361;    0,000;    0,000
255,000;  202,693;    0,000;    0,000
255,600;  205,034;    0,000;    0,000
256,200;  207,386;    0,000;    0,000
256,800;  209,748;    0,000;    0,000
257,400;  212,120;    0,000;    0,000
258,000;  214,502;    0,000;    0,000
258,600;  216,893;    0,000;    0,000
259,200;  219,294;    0,000;    0,000
259,800;  221,704;    0,000;    0,000
260,400;  224,124;    0,000;    0,000
261,000;  226,552;    0,000;    0,000
261,600;  228,990;    0,000;    0,000
262,200;  231,436;    0,000;    0,000
262,800;  233,891;    0,000;    0,000
263,400;  236,355;    0,000;    0,000
264,000;  238,827;    0,000;    0,000
264,600;  241,307;    0,000;    0,000
265,200;  243,796;    0,000;    0,000
265,800;  246,292;    0,000;    0,000
266,400;  248,796;    0,000;    0,000
267,000;  251,308;    0,000;    0,000
267,600;  253,827;    0,000;    0,000
268,200;  256,354;    0,000;    0,000
268,800;  258,888;    0,000;    0,000
269,400;  261,429;    0,000;    0,000
270,000;  263,977;    0,000;    0,000
270,600;  266,532;    0,000;    0,000
271,200;  269,094;    0,000;    0,000
271,800;  271,662;    0,000;    0,000
272,400;  274,237;    0,000;    0,000
273,000;  276,817;    0,000;    0,000
273,600;  279,404;    0,000;    0,000
274,200;  281,997;    0,000;    0,000
274,800;  284,595;    0,000;    0,000
275,400;  287,200;    0,000;    0,000
276,000;  289,809;    0,000;    0,000
276,600;  292,424;    0,000;    0,000
277,200;  295,045;    0,000;    0,000
277,800;  297,670;    0,000;    0,000
278,400;  300,300;    0,000;    0,000
279,000;  302,935;    0,000;    0,000
279,600;  305,575;    0,000;    0,000
280,200;  308,219;    0,000;    0,000
280,800;  310,867;    0,000;    0,000
281,400;  313,520;    0,000;    0,000
282,000;  316,177;    0,000;    0,000
282,600;  318,837;    0,000;    0,000
283,200;  321,502;    0,000;    0,000
283,800;  324,169;    0,000;    0,000
284,400;  326,841;    0,000;    0,000
285,000;  329,516;    0,000;    0,000
285,600;  332,194;    0,000;    0,000
286,200;  334,875;    0,000;    0,000
286,800;  337,558;    0,000;    0,000
287,400;  340,245;    0,000;    0,000
288,000;  342,934;    0,000;    0,000
288,600;  345,626;    0,000;    0,000
289,200;  348,320;    0,000;    0,000
289,800;  351,016;    0,000;    0,000
290,400;  353,715;    0,000;    0,000
291,000;  356,415;    0,000;    0,000
291,600;  359,117;    0,000;    0,000
292,200;  361,820;    0,000;    0,000
292,800;  364,525;    0,000;    0,000
293,400;  367,232;    0,000;    0,000
294,000;  369,940;    0,000;    0,000
294,600;  372,648;    0,000;    0,000
295,200;  375,358;    0,000;    0,000
295,800;  378,069;    0,000;    0,000
296,400;  380,780;    0,000;    0,000
297,000;  383,492;    0,000;    0,000
297,600;  386,204;    0,000;    0,000
298,200;  388,917;    0,000;    0,000
298,800;  391,629;    0,000;    0,000
299,400;  394,342;    0,000;    0,000
300,000;  397,054;    0,000;    0,000
300,600;  399,767;    0,000;    0,000
301,200;  402,479;    0,000;    0,000
301,800;  405,190;    0,000;    0,000
302,400;  407,901;    0,000;    0,000
303,000;  410,611;    0,000;    0,000
303,600;  413,321;    0,000;    0,000
304,200;  416,029;    0,000;    0,000
304,800;  418,736;    0,000;    0,000
305,400;  421,442;    0,000;    0,000
306,000;  424,146;    0,000;    0,000
306,600;  426,849;    0,000;    0,000
307,200;  429,551;    0,000;    0,000
307,800;  432,250;    0,000;    0,000
308,400;  434,948;    0,000;    0,000
309,000;  437,644;    0,000;    0,000
309,600;  440,338;    0,000;    0,000
310,200;  443,029;    0,000;    0,000
310,800;  445,719;    0,000;    0,000
311,400;  448,405;    0,000;    0,000
312,000;  451,090;    0,000;    0,000
312,600;  453,771;    0,000;    0,000
313,200;  456,450;    0,000;    0,000
313,800;  459,126;    0,000;    0,000
314,400;  461,799;    0,000;    0,000
315,000;  464,469;    0,000;    0,000
315,600;  467,135;    0,000;    0,000
316,200;  469,798;    0,000;    0,000
316,800;  472,458;    0,000;    0,000
317,400;  475,114;    0,000;    0,000
318,000;  477,767;    0,000;    0,000
318,600;  480,416;    0,000;    0,000
319,200;  483,061;    0,000;    0,000
319,800;  485,701;    0,000;    0,000
320,400;  488,338;    0,000;    0,000
321,000;  490,971;    0,000;    0,000
321,600;  493,599;    0,000;    0,000
322,200;  496,224;    0,000;    0,000
322,800;  498,843;    0,000;    0,000
323,400;  501,458;    0,000;    0,000
324,000;  504,068;    0,000;    0,000
324,600;  506,674;    0,000;    0,000
325,200;  509,275;    0,000;    0,000
325,800;  511,870;    0,000;    0,000
326,400;  514,461;    0,000;    0,000
327,000;  517,047;    0,000;    0,000
327,600;  519,627;    0,000;    0,000
328,200;  522,202;    0,000;    0,000
328,800;  524,772;    0,000;    0,000
329,400;  527,336;    0,000;    0,000
330,000;  529,894;    0,000;    0,000
330,600;  532,447;    0,000;    0,000
331,200;  534,994;    0,000;    0,000
331,800;  537,535;    0,000;    0,000
332,400;  540,071;    0,000;    0,000
333,000;  542,600;    0,000;    0,000
333,600;  545,123;    0,000;    0,000
334,200;  547,640;    0,000;    0,000
334,800;  550,151;    0,000;    0,000
335,400;  552,655;    0,000;    0,000
336,000;  555,153;    0,000;    0,000
336,600;  557,645;    0,000;    0,000
337,200;  560,130;    0,000;    0,000
337,800;  562,608;    0,000;    0,000
338,400;  565,079;    0,000;    0,000
339,000;  567,544;    0,000;    0,000
339,600;  570,002;    0,000;    0,000
340,200;  572,453;    0,000;    0,000
340,800;  574,897;    0,000;    0,000
341,400;  577,334;    0,000;    0,000
342,000;  579,763;    0,000;    0,000
342,600;  582,186;    0,000;    0,000
343,200;  584,601;    0,000;    0,000
343,800;  587,009;    0,000;    0,000
344,400;  589,409;    0,000;    0,000
345,000;  591,802;    0,000;    0,000
345,600;  594,187;    0,000;    0,000
346,200;  596,565;    0,000;    0,000
346,800;  598,935;    0,000;    0,000
347,400;  601,297;    0,000;    0,000
348,000;  603,652;    0,000;    0,000
348,600;  605,999;    0,000;    0,000
349,200;  608,337;    0,000;    0,000
349,800;  610,668;    0,000;    0,000
350,400;  612,991;    0,000;    0,000
351,000;  615,305;    0,000;    0,000
351,600;  617,612;    0,000;    0,000
352,200;  619,910;    0,000;    0,000
352,800;  622,200;    0,000;    0,000
353,400;  624,482;    0,000;    0,000
354,000;  626,755;    0,000;    0,000
354,600;  629,020;    0,000;    0,000
355,200;  631,277;    0,000;    0,000
355,800;  633,525;    0,000;    0,000
356,400;  635,765;    0,000;    0,000
357,000;  637,995;    0,000;    0,000
357,600;  640,218;    0,000;    0,000
358,200;  642,431;    0,000;    0,000
358,800;  644,636;    0,000;    0,000
359,400;  646,832;    0,000;    0,000
360,000;  649,019;    0,000;    0,000
360,600;  651,198;    0,000;    0,000
361,200;  653,367;    0,000;    0,000
361,800;  655,527;    0,000;    0,000
362,400;  657,679;    0,000;    0,000
363,000;  659,821;    0,000;    0,000
363,600;  661,955;    0,000;    0,000
364,200;  664,079;    0,000;    0,000
364,800;  666,194;    0,000;    0,000
365,400;  668,300;    0,000;    0,000
366,000;  670,397;    0,000;    0,000
366,600;  672,484;    0,000;    0,000
367,200;  674,562;    0,000;    0,000
367,800;  676,631;    0,000;    0,000
368,400;  678,691;    0,000;    0,000
369,000;  680,741;    0,000;    0,000
369,600;  682,782;    0,000;    0,000
370,200;  684,813;    0,000;    0,000
370,800;  686,835;    0,000;    0,000
371,400;  688,847;    0,000;    0,000
372,000;  690,850;    0,000;    0,000
372,600;  692,843;    0,000;    0,000
373,200;  694,827;    0,000;    0,000
373,800;  696,801;    0,000;    0,000
374,400;  698,765;    0,000;    0,000
375,000;  700,720;    0,000;    0,000
375,600;  702,665;    0,000;    0,000
376,200;  704,600;    0,000;    0,000
376,800;  706,526;    0,000;    0,000
377,400;  708,441;    0,000;    0,000
378,000;  710,347;    0,000;    0,000
378,600;  712,244;    0,000;    0,000
379,200;  714,130;    0,000;    0,000
379,800;  716,007;    0,000;    0,000
380,400;  717,873;    0,000;    0,000
381,000;  719,730;    0,000;    0,000
381,600;  721,577;    0,000;    0,000
382,200;  723,414;    0,000;    0,000
382,800;  725,242;    0,000;    0,000
383,400;  727,059;    0,000;    0,000
384,000;  728,866;    0,000;    0,000
384,600;  730,663;    0,000;    0,000
385,200;  732,451;    0,000;    0,000
385,800;  734,228;    0,000;    0,000
386,400;  735,995;    0,000;    0,000
387,000;  737,753;    0,000;    0,000
387,600;  739,500;    0,000;    0,000
388,200;  741,237;    0,000;    0,000
388,800;  742,965;    0,000;    0,000
389,400;  744,682;    0,000;    0,000
390,000;  746,389;    0,000;    0,000
390,600;  748,086;    0,000;    0,000
391,200;  749,773;    0,000;    0,000
391,800;  751,450;    0,000;    0,000
392,400;  753,116;    0,000;    0,000
393,000;  754,773;    0,000;    0,000
393,600;  756,419;    0,000;    0,000
394,200;  758,056;    0,000;    0,000
394,800;  759,682;    0,000;    0,000
395,400;  761,298;    0,000;    0,000
396,000;  762,904;    0,000;    0,000
396,600;  764,500;    0,000;    0,000
397,200;  766,086;    0,000;    0,000
397,800;  767,662;    0,000;    0,000
398,400;  769,227;    0,000;    0,000
399,000;  770,783;    0,000;    0,000
399,600;  772,328;    0,000;    0,000
400,200;  773,863;    0,000;    0,000
400,800;  775,388;    0,000;    0,000
401,400;  776,903;    0,000;    0,000
402,000;  778,408;    0,000;    0,000
402,600;  779,903;    0,000;    0,000
403,200;  781,387;    0,000;    0,000
403,800;  782,861;    0,000;    0,000
404,400;  784,326;    0,000;    0,000
405,000;  785,780;    0,000;    0,000
405,600;  787,224;    0,000;    0,000
406,200;  788,658;    0,000;    0,000
406,800;  790,082;    0,000;    0,000
407,400;  791,495;    0,000;    0,000
408,000;  792,899;    0,000;    0,000
408,600;  794,292;    0,000;    0,000
409,200;  795,676;    0,000;    0,000
409,800;  797,049;    0,000;    0,000
410,400;  798,413;    0,000;    0,000
411,000;  799,766;    0,000;    0,000
411,600;  801,109;    0,000;    0,000
412,200;  802,442;    0,000;    0,000
412,800;  803,765;    0,000;    0,000
413,400;  805,079;    0,000;    0,000
414,000;  806,382;    0,000;    0,000
414,600;  807,675;    0,000;    0,000
415,200;  808,958;    0,000;    0,000
415,800;  810,231;    0,000;    0,000
416,400;  811,494;    0,000;    0,000
417,000;  812,748;    0,000;    0,000
417,600;  813,991;    0,000;    0,000
418,200;  815,224;    0,000;    0,000
418,800;  816,448;    0,000;    0,000
419,400;  817,661;    0,000;    0,000
420,000;  818,865;    0,000;    0,000
420,600;  820,059;    0,000;    0,000
421,200;  821,243;    0,000;    0,000
421,800;  822,417;    0,000;    0,000
422,400;  823,581;    0,000;    0,000
423,000;  824,735;    0,000;    0,000
423,600;  825,880;    0,000;    0,000
424,200;  827,015;    0,000;    0,000
424,800;  828,140;    0,000;    0,000
425,400;  829,255;    0,000;    0,000
426,000;  830,361;    0,000;    0,000
426,600;  831,457;    0,000;    0,000
427,200;  832,543;    0,000;    0,000
427,800;  833,619;    0,000;    0,000
428,400;  834,686;    0,000;    0,000
429,000;  835,743;    0,000;    0,000
429,600;  836,791;    0,000;    0,000
430,200;  837,828;    0,000;    0,000
430,800;  838,857;    0,000;    0,000
431,400;  839,875;    0,000;    0,000
432,000;  840,885;    0,000;    0,000
432,600;  841,884;    0,000;    0,000
433,200;  842,874;    0,000;    0,000
433,800;  843,855;    0,000;    0,000
434,400;  844,826;    0,000;    0,000
435,000;  845,788;    0,000;    0,000
435,600;  846,740;    0,000;    0,000
436,200;  847,683;    0,000;    0,000
436,800;  848,616;    0,000;    0,000
437,400;  849,540;    0,000;    0,000
438,000;  850,455;    0,000;    0,000
438,600;  851,360;    0,000;    0,000
439,200;  852,256;    0,000;    0,000
439,800;  853,143;    0,000;    0,000
440,400;  854,020;    0,000;    0,000
441,000;  854,888;    0,000;    0,000
441,600;  855,747;    0,000;    0,000
442,200;  856,597;    0,000;    0,000
442,800;  857,438;    0,000;    0,000
443,400;  858,269;    0,000;    0,000
444,000;  859,092;    0,000;    0,000
444,600;  859,905;    0,000;    0,000
445,200;  860,709;    0,000;    0,000
445,800;  861,504;    0,000;    0,000
446,400;  862,290;    0,000;    0,000
447,000;  863,068;    0,000;    0,000
447,600;  863,836;    0,000;    0,000
448,200;  864,595;    0,000;    0,000
448,800;  865,345;    0,000;    0,000
449,400;  866,086;    0,000;    0,000
450,000;  866,819;    0,000;    0,000
450,600;  867,542;    0,000;    0,000
451,200;  868,257;    0,000;    0,000
451,800;  868,963;    0,000;    0,000
452,400;  869,660;    0,000;    0,000
453,000;  870,349;    0,000;    0,000
453,600;  871,028;    0,000;    0,000
454,200;  871,699;    0,000;    0,000
454,800;  872,362;    0,000;    0,000
455,400;  873,015;    0,000;    0,000
456,000;  873,660;    0,000;    0,000
456,600;  874,297;    0,000;    0,000
457,200;  874,925;    0,000;    0,000
457,800;  875,544;    0,000;    0,000
458,400;  876,155;    0,000;    0,000
459,000;  876,757;    0,000;    0,000
459,600;  877,351;    0,000;    0,000
460,200;  877,936;    0,000;    0,000
460,800;  878,514;    0,000;    0,000
461,400;  879,082;    0,000;    0,000
462,000;  879,642;    0,000;    0,000
462,600;  880,194;    0,000;    0,000
463,200;  880,738;    0,000;    0,000
463,800;  881,274;    0,000;    0,000
464,400;  881,801;    0,000;    0,000
465,000;  882,320;    0,000;    0,000
465,600;  882,831;    0,000;    0,000
466,200;  883,333;    0,000;    0,000
466,800;  883,828;    0,000;    0,000
467,400;  884,314;    0,000;    0,000
468,000;  884,793;    0,000;    0,000
468,600;  885,263;    0,000;    0,000
469,200;  885,725;    0,000;    0,000
469,800;  886,180;    0,000;    0,000
470,400;  886,626;    0,000;    0,000
471,000;  887,064;    0,000;    0,000
471,600;  887,495;    0,000;    0,000
472,200;  887,918;    0,000;    0,000
472,800;  888,332;    0,000;    0,000
473,400;  888,739;    0,000;    0,000
474,000;  889,139;    0,000;    0,000
474,600;  889,530;    0,000;    0,000
475,200;  889,914;    0,000;    0,000
475,800;  890,290;    0,000;    0,000
476,400;  890,659;    0,000;    0,000
477,000;  891,019;    0,000;    0,000
477,600;  891,373;    0,000;    0,000
478,200;  891,718;    0,000;    0,000
478,800;  892,056;    0,000;    0,000
479,400;  892,387;    0,000;    0,000
480,000;  892,710;    0,000;    0,000
480,600;  893,026;    0,000;    0,000
481,200;  893,334;    0,000;    0,000
481,800;  893,635;    0,000;    0,000
482,400;  893,928;    0,000;    0,000
483,000;  894,214;    0,000;    0,000
483,600;  894,493;    0,000;    0,000
484,200;  894,764;    0,000;    0,000
484,800;  895,029;    0,000;    0,000
485,400;  895,286;    0,000;    0,000
486,000;  895,536;    0,000;    0,000
486,600;  895,778;    0,000;    0,000
487,200;  896,014;    0,000;    0,000
487,800;  896,242;    0,000;    0,000
488,400;  896,464;    0,000;    0,000
489,000;  896,678;    0,000;    0,000
489,600;  896,886;    0,000;    0,000
490,200;  897,086;    0,000;    0,000
490,800;  897,279;    0,000;    0,000
491,400;  897,466;    0,000;    0,000
492,000;  897,646;    0,000;    0,000
492,600;  897,818;    0,000;    0,000
493,200;  897,984;    0,000;    0,000
493,800;  898,143;    0,000;    0,000
494,400;  898,296;    0,000;    0,000
495,000;  898,441;    0,000;    0,000
495,600;  898,580;    0,000;    0,000
496,200;  898,712;    0,000;    0,000
496,800;  898,838;    0,000;    0,000
497,400;  898,957;    0,000;    0,000
498,000;  899,069;    0,000;    0,000
498,600;  899,175;    0,000;    0,000
499,200;  899,274;    0,000;    0,000
499,800;  899,367;    0,000;    0,000
500,400;  899,454;    0,000;    0,000
501,000;  899,533;    0,000;    0,000
501,600;  899,607;    0,000;    0,000
502,200;  899,674;    0,000;    0,000
502,800;  899,735;    0,000;    0,000
503,400;  899,789;    0,000;    0,000
504,000;  899,837;    0,000;    0,000
504,600;  899,879;    0,000;    0,000
505,200;  899,915;    0,000;    0,000
505,800;  899,944;    0,000;    0,000
506,400;  899,967;    0,000;    0,000
507,000;  899,984;    0,000;    0,000
507,600;  899,995;    0,000;    0,000
508,200;  900,000;    0,000;    0,000
508,800;  899,999;    0,000;    0,000
509,400;  899,992;    0,000;    0,000
510,000;  899,978;    0,000;    0,000
510,600;  899,959;    0,000;    0,000
511,200;  899,934;    0,000;    0,000
511,800;  899,903;    0,000;    0,000
512,400;  899,866;    0,000;    0,000
513,000;  899,823;    0,000;    0,000
513,600;  899,775;    0,000;    0,000
514,200;  899,720;    0,000;    0,000
514,800;  899,660;    0,000;    0,000
515,400;  899,594;    0,000;    0,000
516,000;  899,523;    0,000;    0,000
516,600;  899,445;    0,000;    0,000
517,200;  899,362;    0,000;    0,000
517,800;  899,274;    0,000;    0,000
518,400;  899,180;    0,000;    0,000
519,000;  899,080;    0,000;    0,000
519,600;  898,975;    0,000;    0,000
520,200;  898,864;    0,000;    0,000
520,800;  898,748;    0,000;    0,000
521,400;  898,626;    0,000;    0,000
522,000;  898,499;    0,000;    0,000
522,600;  898,366;    0,000;    0,000
523,200;  898,228;    0,000;    0,000
523,800;  898,085;    0,000;    0,000
524,400;  897,936;    0,000;    0,000
525,000;  897,783;    0,000;    0,000
525,600;  897,624;    0,000;    0,000
526,200;  897,459;    0,000;    0,000
526,800;  897,290;    0,000;    0,000
527,400;  897,115;    0,000;    0,000
528,000;  896,935;    0,000;    0,000
528,600;  896,750;    0,000;    0,000
529,200;  896,560;    0,000;    0,000
529,800;  896,365;    0,000;    0,000
530,400;  896,165;    0,000;    0,000
531,000;  895,960;    0,000;    0,000
531,600;  895,750;    0,000;    0,000
532,200;  895,535;    0,000;    0,000
532,800;  895,315;    0,000;    0,000
533,400;  895,090;    0,000;    0,000
534,000;  894,861;    0,000;    0,000
534,600;  894,626;    0,000;    0,000
535,200;  894,387;    0,000;    0,000
535,800;  894,143;    0,000;    0,000
536,400;  893,894;    0,000;    0,000
537,000;  893,640;    0,000;    0,000
537,600;  893,382;    0,000;    0,000
538,200;  893,119;    0,000;    0,000
538,800;  892,851;    0,000;    0,000
539,400;  892,579;    0,000;    0,000
540,000;  892,302;    0,000;    0,000
540,600;  892,020;    0,000;    0,000
541,200;  891,734;    0,000;    0,000
541,800;  891,444;    0,000;    0,000
542,400;  891,149;    0,000;    0,000
543,000;  890,849;    0,000;    0,000
543,600;  890,545;    0,000;    0,000
544,200;  890,237;    0,000;    0,000
544,800;  889,924;    0,000;    0,000
545,400;  889,607;    0,000;    0,000
546,000;  889,286;    0,000;    0,000
546,600;  888,960;    0,000;    0,000
547,200;  888,630;    0,000;    0,000
547,800;  888,296;    0,000;    0,000
548,400;  887,957;    0,000;    0,000
549,000;  887,615;    0,000;    0,000
549,600;  887,268;    0,000;    0,000
550,200;  886,917;    0,000;    0,000
550,800;  886,562;    0,000;    0,000
551,400;  886,202;    0,000;    0,000
552,000;  885,839;    0,000;    0,000
552,600;  885,471;    0,000;    0,000
553,200;  885,100;    0,000;    0,000
553,800;  884,724;    0,000;    0,000
554,400;  884,345;    0,000;    0,000
555,000;  883,962;    0,000;    0,000
555,600;  883,574;    0,000;    0,000
556,200;  883,183;    0,000;    0,000
556,800;  882,788;    0,000;    0,000
557,400;  882,389;    0,000;    0,000
558,000;  881,986;    0,000;    0,000
558,600;  881,579;    0,000;    0,000
559,200;  881,169;    0,000;    0,000
559,800;  880,755;    0,000;    0,000
560,400;  880,337;    0,000;    0,000
561,000;  879,915;    0,000;    0,000
561,600;  879,490;    0,000;    0,000
562,200;  879,061;    0,000;    0,000
562,800;  878,628;    0,000;    0,000
563,400;  878,192;    0,000;    0,000
564,000;  877,752;    0,000;    0,000
564,600;  877,309;    0,000;    0,000
565,200;  876,862;    0,000;    0,000
565,800;  876,411;    0,000;    0,000
566,400;  875,957;    0,000;    0,000
567,000;  875,500;    0,000;    0,000
567,600;  875,039;    0,000;    0,000
568,200;  874,574;    0,000;    0,000
568,800;  874,106;    0,000;    0,000
569,400;  873,635;    0,000;    0,000
570,000;  873,161;    0,000;    0,000
570,600;  872,683;    0,000;    0,000
571,200;  872,202;    0,000;    0,000
571,800;  871,717;    0,000;    0,000
572,400;  871,229;    0,000;    0,000
573,000;  870,738;    0,000;    0,000
573,600;  870,244;    0,000;    0,000
574,200;  869,746;    0,000;    0,000
574,800;  869,246;    0,000;    0,000
575,400;  868,742;    0,000;    0,000
576,000;  868,235;    0,000;    0,000
576,600;  867,725;    0,000;    0,000
577,200;  867,212;    0,000;    0,000
577,800;  866,695;    0,000;    0,000
578,400;  866,176;    0,000;    0,000
579,000;  865,654;    0,000;    0,000
579,600;  865,128;    0,000;    0,000
580,200;  864,600;    0,000;    0,000
580,800;  864,068;    0,000;    0,000
581,400;  863,534;    0,000;    0,000
582,000;  862,997;    0,000;    0,000
582,600;  862,457;    0,000;    0,000
583,200;  861,914;    0,000;    0,000
583,800;  861,368;    0,000;    0,000
584,400;  860,819;    0,000;    0,000
585,000;  860,268;    0,000;    0,000
585,600;  859,713;    0,000;    0,000
586,200;  859,156;    0,000;    0,000
586,800;  858,596;    0,000;    0,000
587,400;  858,033;    0,000;    0,000
588,000;  857,468;    0,000;    0,000
588,600;  856,900;    0,000;    0,000
589,200;  856,329;    0,000;    0,000
589,800;  855,756;    0,000;    0,000
590,400;  855,180;    0,000;    0,000
591,000;  854,601;    0,000;    0,000
591,600;  854,020;    0,000;    0,000
592,200;  853,436;    0,000;    0,000
592,800;  852,849;    0,000;    0,000
593,400;  852,261;    0,000;    0,000
594,000;  851,669;    0,000;    0,000
594,600;  851,075;    0,000;    0,000
595,200;  850,479;    0,000;    0,000
595,800;  849,880;    0,000;    0,000
596,400;  849,278;    0,000;    0,000
597,000;  848,674;    0,000;    0,000
597,600;  848,068;    0,000;    0,000
598,200;  847,460;    0,000;    0,000
598,800;  846,849;    0,000;    0,000
599,400;  846,235;    0,000;    0,000
600,000;  845,619;    0,000;    0,000
600,600;  845,001;    0,000;    0,000
601,200;  844,381;    0,000;    0,000
601,800;  843,759;    0,000;    0,000
602,400;  843,134;    0,000;    0,000
603,000;  842,507;    0,000;    0,000
603,600;  841,877;    0,000;    0,000
604,200;  841,246;    0,000;    0,000
604,800;  840,612;    0,000;    0,000
605,400;  839,976;    0,000;    0,000
606,000;  839,338;    0,000;    0,000
606,600;  838,698;    0,000;    0,000
607,200;  838,056;    0,000;    0,000
607,800;  837,412;    0,000;    0,000
608,400;  836,765;    0,000;    0,000
609,000;  836,117;    0,000;    0,000
609,600;  835,466;    0,000;    0,000
610,200;  834,814;    0,000;    0,000
610,800;  834,159;    0,000;    0,000
611,400;  833,502;    0,000;    0,000
612,000;  832,844;    0,000;    0,000
612,600;  832,183;    0,000;    0,000
613,200;  831,521;    0,000;    0,000
613,800;  830,857;    0,000;    0,000
614,400;  830,190;    0,000;    0,000
615,000;  829,522;    0,000;    0,000
615,600;  828,852;    0,000;    0,000
616,200;  828,180;    0,000;    0,000
616,800;  827,506;    0,000;    0,000
617,400;  826,831;    0,000;    0,000
618,000;  826,153;    0,000;    0,000
618,600;  825,474;    0,000;    0,000
619,200;  824,793;    0,000;    0,000
619,800;  824,111;    0,000;    0,000
620,400;  823,426;    0,000;    0,000
621,000;  822,740;    0,000;    0,000
621,600;  822,052;    0,000;    0,000
622,200;  821,362;    0,000;    0,000
622,800;  820,671;    0,000;    0,000
623,400;  819,978;    0,000;    0,000
624,000;  819,284;    0,000;    0,000
624,600;  818,587;    0,000;    0,000
625,200;  817,889;    0,000;    0,000
625,800;  817,190;    0,000;    0,000
626,400;  816,489;    0,000;    0,000
627,000;  815,786;    0,000;    0,000
627,600;  815,082;    0,000;    0,000
628,200;  814,376;    0,000;    0,000
628,800;  813,669;    0,000;    0,000
629,400;  812,960;    0,000;    0,000
630,000;  812,250;    0,000;    0,000
630,600;  811,538;    0,000;    0,000
631,200;  810,825;    0,000;    0,000
631,800;  810,110;    0,000;    0,000
632,400;  809,394;    0,000;    0,000
633,000;  808,677;    0,000;    0,000
633,600;  807,958;    0,000;    0,000
634,200;  807,237;    0,000;    0,000
634,800;  806,516;    0,000;    0,000
635,400;  805,793;    0,000;    0,000
636,000;  805,068;    0,000;    0,000
636,600;  804,342;    0,000;    0,000
637,200;  803,615;    0,000;    0,000
637,800;  802,887;    0,000;    0,000
638,400;  802,157;    0,000;    0,000
639,000;  801,426;    0,000;    0,000
639,600;  800,694;    0,000;    0,000
640,200;  799,960;    0,000;    0,000
640,800;  799,225;    0,000;    0,000
641,400;  798,489;    0,000;    0,000
642,000;  797,752;    0,000;    0,000
642,600;  797,014;    0,000;    0,000
643,200;  796,274;    0,000;    0,000
643,800;  795,533;    0,000;    0,000
644,400;  794,791;    0,000;    0,000
645,000;  794,048;    0,000;    0,000
645,600;  793,304;    0,000;    0,000
646,200;  792,559;    0,000;    0,000
646,800;  791,812;    0,000;    0,000
647,400;  791,065;    0,000;    0,000
648,000;  790,316;    0,000;    0,000
648,600;  789,566;    0,000;    0,000
649,200;  788,815;    0,000;    0,000
649,800;  788,064;    0,000;    0,000
650,400;  787,311;    0,000;    0,000
651,000;  786,557;    0,000;    0,000
651,600;  785,802;    0,000;    0,000
652,200;  785,046;    0,000;    0,000
652,800;  784,289;    0,000;    0,000
653,400;  783,531;    0,000;    0,000
654,000;  782,772;    0,000;    0,000
654,600;  782,013;    0,000;    0,000
655,200;  781,252;    0,000;    0,000
655,800;  780,490;    0,000;    0,000
656,400;  779,728;    0,000;    0,000
657,000;  778,964;    0,000;    0,000
657,600;  778,200;    0,000;    0,000
658,200;  777,435;    0,000;    0,000
658,800;  776,669;    0,000;    0,000
659,400;  775,902;    0,000;    0,000
660,000;  775,134;    0,000;    0,000
660,600;  774,365;    0,000;    0,000
661,200;  773,596;    0,000;    0,000
661,800;  772,826;    0,000;    0,000
662,400;  772,055;    0,000;    0,000
663,000;  771,283;    0,000;    0,000
663,600;  770,510;    0,000;    0,000
664,200;  769,737;    0,000;    0,000
664,800;  768,963;    0,000;    0,000
665,400;  768,188;    0,000;    0,000
666,000;  767,412;    0,000;    0,000
666,600;  766,636;    0,000;    0,000
667,200;  765,859;    0,000;    0,000
667,800;  765,081;    0,000;    0,000
668,400;  764,303;    0,000;    0,000
669,000;  763,524;    0,000;    0,000
669,600;  762,744;    0,000;    0,000
670,200;  761,964;    0,000;    0,000
670,800;  761,183;    0,000;    0,000
671,400;  760,401;    0,000;    0,000
672,000;  759,619;    0,000;    0,000
672,600;  758,836;    0,000;    0,000
673,200;  758,052;    0,000;    0,000
673,800;  757,268;    0,000;    0,000
674,400;  756,484;    0,000;    0,000
675,000;  755,698;    0,000;    0,000
675,600;  754,912;    0,000;    0,000
676,200;  754,126;    0,000;    0,000
676,800;  753,339;    0,000;    0,000
677,400;  752,552;    0,000;    0,000
678,000;  751,764;    0,000;    0,000
678,600;  750,975;    0,000;    0,000
679,200;  750,186;    0,000;    0,000
679,800;  749,397;    0,000;    0,000
680,400;  748,607;    0,000;    0,000
681,000;  747,816;    0,000;    0,000
681,600;  747,025;    0,000;    0,000
682,200;  746,234;    0,000;    0,000
682,800;  745,442;    0,000;    0,000
683,400;  744,650;    0,000;    0,000
684,000;  743,857;    0,000;    0,000
684,600;  743,064;    0,000;    0,000
685,200;  742,270;    0,000;    0,000
685,800;  741,476;    0,000;    0,000
686,400;  740,682;    0,000;    0,000
687,000;  739,887;    0,000;    0,000
687,600;  739,092;    0,000;    0,000
688,200;  738,297;    0,000;    0,000
688,800;  737,501;    0,000;    0,000
689,400;  736,705;    0,000;    0,000
690,000;  735,908;    0,000;    0,000
690,600;  735,111;    0,000;    0,000
691,200;  734,314;    0,000;    0,000
691,800;  733,517;    0,000;    0,000
692,400;  732,719;    0,000;    0,000
693,000;  731,921;    0,000;    0,000
693,600;  731,122;    0,000;    0,000
694,200;  730,324;    0,000;    0,000
694,800;  729,525;    0,000;    0,000
695,400;  728,725;    0,000;    0,000
696,000;  727,926;    0,000;    0,000
696,600;  727,126;    0,000;    0,000
697,200;  726,326;    0,000;    0,000
697,800;  725,526;    0,000;    0,000
698,400;  724,726;    0,000;    0,000
699,000;  723,925;    0,000;    0,000
699,600;  723,124;    0,000;    0,000
700,200;  722,323;    0,000;    0,000
700,800;  721,522;    0,000;    0,000
701,400;  720,721;    0,000;    0,000
702,000;  719,919;    0,000;    0,000
702,600;  719,117;    0,000;    0,000
703,200;  718,315;    0,000;    0,000
703,800;  717,513;    0,000;    0,000
704,400;  716,711;    0,000;    0,000
705,000;  715,909;    0,000;    0,000
705,600;  715,106;    0,000;    0,000
706,200;  714,304;    0,000;    0,000
706,800;  713,501;    0,000;    0,000
707,400;  712,698;    0,000;    0,000
708,000;  711,895;    0,000;    0,000
708,600;  711,092;    0,000;    0,000
709,200;  710,289;    0,000;    0,000
709,800;  709,486;    0,000;    0,000
710,400;  708,682;    0,000;    0,000
711,000;  707,879;    0,000;    0,000
711,600;  707,076;    0,000;    0,000
712,200;  706,272;    0,000;    0,000
712,800;  705,469;    0,000;    0,000
713,400;  704,665;    0,000;    0,000
714,000;  703,862;    0,000;    0,000
714,600;  703,058;    0,000;    0,000
715,200;  702,254;    0,000;    0,000
715,800;  701,451;    0,000;    0,000
716,400;  700,647;    0,000;    0,000
717,000;  699,844;    0,000;    0,000
717,600;  699,040;    0,000;    0,000
718,200;  698,236;    0,000;    0,000
718,800;  697,433;    0,000;    0,000
719,400;  696,629;    0,000;    0,000
720,000;  695,826;    0,000;    0,000
720,600;  695,022;    0,000;    0,000
721,200;  694,219;    0,000;    0,000
721,800;  693,415;    0,000;    0,000
722,400;  692,612;    0,000;    0,000
723,000;  691,809;    0,000;    0,000
723,600;  691,006;    0,000;    0,000
724,200;  690,203;    0,000;    0,000
724,800;  689,400;    0,000;    0,000
725,400;  688,597;    0,000;    0,000
726,000;  687,794;    0,000;    0,000
726,600;  686,991;    0,000;    0,000
727,200;  686,188;    0,000;    0,000
727,800;  685,386;    0,000;    0,000
728,400;  684,583;    0,000;    0,000
729,000;  683,781;    0,000;    0,000
729,600;  682,979;    0,000;    0,000
730,200;  682,177;    0,000;    0,000
730,800;  681,375;    0,000;    0,000
731,400;  680,574;    0,000;    0,000
732,000;  679,772;    0,000;    0,000
732,600;  678,971;    0,000;    0,000
733,200;  678,169;    0,000;    0,000
733,800;  677,368;    0,000;    0,000
734,400;  676,567;    0,000;    0,000
735,000;  675,767;    0,000;    0,000
735,600;  674,966;    0,000;    0,000
736,200;  674,166;    0,000;    0,000
736,800;  673,366;    0,000;    0,000
737,400;  672,566;    0,000;    0,000
738,000;  671,766;    0,000;    0,000
738,600;  670,967;    0,000;    0,000
739,200;  670,167;    0,000;    0,000
739,800;  669,368;    0,000;    0,000
740,400;  668,569;    0,000;    0,000
741,000;  667,771;    0,000;    0,000
741,600;  666,972;    0,000;    0,000
742,200;  666,174;    0,000;    0,000
742,800;  665,376;    0,000;    0,000
743,400;  664,579;    0,000;    0,000
744,000;  663,782;    0,000;    0,000
744,600;  662,984;    0,000;    0,000
745,200;  662,188;    0,000;    0,000
745,800;  661,391;    0,000;    0,000
746,400;  660,595;    0,000;    0,000
747,000;  659,799;    0,000;    0,000
747,600;  659,003;    0,000;    0,000
748,200;  658,208;    0,000;    0,000
748,800;  657,413;    0,000;    0,000
749,400;  656,618;    0,000;    0,000
750,000;  655,823;    0,000;    0,000
750,600;  655,029;    0,000;    0,000
751,200;  654,235;    0,000;    0,000
751,800;  653,442;    0,000;    0,000
752,400;  652,648;    0,000;    0,000
753,000;  651,856;    0,000;    0,000
753,600;  651,063;    0,000;    0,000
754,200;  650,271;    0,000;    0,000
754,800;  649,479;    0,000;    0,000
755,400;  648,687;    0,000;    0,000
756,000;  647,896;    0,000;    0,000
756,600;  647,105;    0,000;    0,000
757,200;  646,315;    0,000;    0,000
757,800;  645,525;    0,000;    0,000
758,400;  644,735;    0,000;    0,000
759,000;  643,946;    0,000;    0,000
759,600;  643,157;    0,000;    0,000
760,200;  642,368;    0,000;    0,000
760,800;  641,580;    0,000;    0,000
761,400;  640,792;    0,000;    0,000
762,000;  640,004;    0,000;    0,000
762,600;  639,217;    0,000;    0,000
763,200;  638,431;    0,000;    0,000
763,800;  637,644;    0,000;    0,000
764,400;  636,858;    0,000;    0,000
765,000;  636,073;    0,000;    0,000
765,600;  635,288;    0,000;    0,000
766,200;  634,503;    0,000;    0,000
766,800;  633,719;    0,000;    0,000
767,400;  632,935;    0,000;    0,000
768,000;  632,152;    0,000;    0,000
768,600;  631,369;    0,000;    0,000
769,200;  630,587;    0,000;    0,000
769,800;  629,805;    0,000;    0,000
770,400;  629,023;    0,000;    0,000
771,000;  628,242;    0,000;    0,000
771,600;  627,461;    0,000;    0,000
772,200;  626,681;    0,000;    0,000
772,800;  625,901;    0,000;    0,000
773,400;  625,122;    0,000;    0,000
774,000;  624,343;    0,000;    0,000
774,600;  623,565;    0,000;    0,000
775,200;  622,787;    0,000;    0,000
775,800;  622,009;    0,000;    0,000
776,400;  621,232;    0,000;    0,000
777,000;  620,456;    0,000;    0,000
777,600;  619,680;    0,000;    0,000
778,200;  618,904;    0,000;    0,000
778,800;  618,129;    0,000;    0,000
779,400;  617,355;    0,000;    0,000
780,000;  616,581;    0,000;    0,000
780,600;  615,807;    0,000;    0,000
781,200;  615,034;    0,000;    0,000
781,800;  614,262;    0,000;    0,000
782,400;  613,490;    0,000;    0,000
783,000;  612,718;    0,000;    0,000
783,600;  611,947;    0,000;    0,000
784,200;  611,177;    0,000;    0,000
784,800;  610,407;    0,000;    0,000
785,400;  609,637;    0,000;    0,000
786,000;  608,868;    0,000;    0,000
786,600;  608,100;    0,000;    0,000
787,200;  607,332;    0,000;    0,000
787,800;  606,565;    0,000;    0,000
788,400;  605,798;    0,000;    0,000
789,000;  605,032;    0,000;    0,000
789,600;  604,266;    0,000;    0,000
790,200;  603,501;    0,000;    0,000
790,800;  602,736;    0,000;    0,000
791,400;  601,972;    0,000;    0,000
792,000;  601,209;    0,000;    0,000
792,600;  600,446;    0,000;    0,000
793,200;  599,684;    0,000;    0,000
793,800;  598,922;    0,000;    0,000
794,400;  598,161;    0,000;    0,000
795,000;  597,400;    0,000;    0,000
795,600;  596,640;    0,000;    0,000
796,200;  595,880;    0,000;    0,000
796,800;  595,121;    0,000;    0,000
797,400;  594,363;    0,000;    0,000
798,000;  593,605;    0,000;    0,000
798,600;  592,848;    0,000;    0,000
799,200;  592,092;    0,000;    0,000
799,800;  591,336;    0,000;    0,000
800,400;  590,580;    0,000;    0,000
801,000;  589,825;    0,000;    0,000
801,600;  589,071;    0,000;    0,000
802,200;  588,317;    0,000;    0,000
802,800;  587,564;    0,000;    0,000
803,400;  586,812;    0,000;    0,000
804,000;  586,060;    0,000;    0,000
804,600;  585,309;    0,000;    0,000
805,200;  584,558;    0,000;    0,000
805,800;  583,808;    0,000;    0,000
806,400;  583,059;    0,000;    0,000
807,000;  582,310;    0,000;    0,000
807,600;  581,562;    0,000;    0,000
808,200;  580,814;    0,000;    0,000
808,800;  580,067;    0,000;    0,000
809,400;  579,321;    0,000;    0,000
810,000;  578,575;    0,000;    0,000
810,600;  577,830;    0,000;    0,000
811,200;  577,086;    0,000;    0,000
811,800;  576,342;    0,000;    0,000
812,400;  575,599;    0,000;    0,000
813,000;  574,856;    0,000;    0,000
813,600;  574,114;    0,000;    0,000
814,200;  573,373;    0,000;    0,000
814,800;  572,632;    0,000;    0,000
815,400;  571,892;    0,000;    0,000
816,000;  571,153;    0,000;    0,000
816,600;  570,414;    0,000;    0,000
817,200;  569,676;    0,000;    0,000
817,800;  568,939;    0,000;    0,000
818,400;  568,202;    0,000;    0,000
819,000;  567,466;    0,000;    0,000
819,600;  566,731;    0,000;    0,000
820,200;  565,996;    0,000;    0,000
820,800;  565,262;    0,000;    0,000
821,400;  564,528;    0,000;    0,000
822,000;  563,795;    0,000;    0,000
822,600;  563,063;    0,000;    0,000
823,200;  562,332;    0,000;    0,000
823,800;  561,601;    0,000;    0,000
824,400;  560,871;    0,000;    0,000
825,000;  560,141;    0,000;    0,000
825,600;  559,413;    0,000;    0,000
826,200;  558,685;    0,000;    0,000
826,800;  557,957;    0,000;    0,000
827,400;  557,230;    0,000;    0,000
828,000;  556,504;    0,000;    0,000
828,600;  555,779;    0,000;    0,000
829,200;  555,054;    0,000;    0,000
829,800;  554,330;    0,000;    0,000
830,400;  553,607;    0,000;    0,000
831,000;  552,884;    0,000;    0,000
831,600;  552,162;    0,000;    0,000
832,200;  551,441;    0,000;    0,000
832,800;  550,720;    0,000;    0,000
833,400;  550,000;    0,000;    0,000
834,000;  549,281;    0,000;    0,000
834,600;  548,562;    0,000;    0,000
835,200;  547,844;    0,000;    0,000
835,800;  547,127;    0,000;    0,000
836,400;  546,411;    0,000;    0,000
837,000;  545,695;    0,000;    0,000
837,600;  544,980;    0,000;    0,000
838,200;  544,266;    0,000;    0,000
838,800;  543,552;    0,000;    0,000
839,400;  542,839;    0,000;    0,000
840,000;  542,127;    0,000;    0,000
840,600;  541,415;    0,000;    0,000
841,200;  540,704;    0,000;    0,000
841,800;  539,994;    0,000;    0,000
842,400;  539,285;    0,000;    0,000
843,000;  538,576;    0,000;    0,000
843,600;  537,868;    0,000;    0,000
844,200;  537,161;    0,000;    0,000
844,800;  536,454;    0,000;    0,000
845,400;  535,749;    0,000;    0,000
846,000;  535,043;    0,000;    0,000
846,600;  534,339;    0,000;    0,000
847,200;  533,635;    0,000;    0,000
847,800;  532,932;    0,000;    0,000
848,400;  532,230;    0,000;    0,000
849,000;  531,528;    0,000;    0,000
849,600;  530,828;    0,000;    0,000
850,200;  530,128;    0,000;    0,000
850,800;  529,428;    0,000;    0,000
851,400;  528,730;    0,000;    0,000
852,000;  528,032;    0,000;    0,000
852,600;  527,334;    0,000;    0,000
853,200;  526,638;    0,000;    0,000
853,800;  525,942;    0,000;    0,000
854,400;  525,247;    0,000;    0,000
855,000;  524,553;    0,000;    0,000
855,600;  523,859;    0,000;    0,000
856,200;  523,167;    0,000;    0,000
856,800;  522,474;    0,000;    0,000
857,400;  521,783;    0,000;    0,000
858,000;  521,093;    0,000;    0,000
858,600;  520,403;    0,000;    0,000
859,200;  519,714;    0,000;    0,000
859,800;  519,025;    0,000;    0,000
860,400;  518,337;    0,000;    0,000
861,000;  517,650;    0,000;    0,000
861,600;  516,964;    0,000;    0,000
862,200;  516,279;    0,000;    0,000
862,800;  515,594;    0,000;    0,000
863,400;  514,910;    0,000;    0,000
864,000;  514,227;    0,000;    0,000
864,600;  513,544;    0,000;    0,000
865,200;  512,863;    0,000;    0,000
865,800;  512,182;    0,000;    0,000
866,400;  511,501;    0,000;    0,000
867,000;  510,822;    0,000;    0,000
867,600;  510,143;    0,000;    0,000
868,200;  509,465;    0,000;    0,000
868,800;  508,788;    0,000;    0,000
869,400;  508,111;    0,000;    0,000
870,000;  507,436;    0,000;    0,000
870,600;  506,761;    0,000;    0,000
871,200;  506,086;    0,000;    0,000
871,800;  505,413;    0,000;    0,000
872,400;  504,740;    0,000;    0,000
873,000;  504,068;    0,000;    0,000
873,600;  503,397;    0,000;    0,000
874,200;  502,726;    0,000;    0,000
874,800;  502,056;    0,000;    0,000
875,400;  501,387;    0,000;    0,000
876,000;  500,719;    0,000;    0,000
876,600;  500,052;    0,000;    0,000
877,200;  499,385;    0,000;    0,000
877,800;  498,719;    0,000;    0,000
878,400;  498,054;    0,000;    0,000
879,000;  497,389;    0,000;    0,000
879,600;  496,725;    0,000;    0,000
880,200;  496,062;    0,000;    0,000
880,800;  495,400;    0,000;    0,000
881,400;  494,739;    0,000;    0,000
882,000;  494,078;    0,000;    0,000
882,600;  493,418;    0,000;    0,000
883,200;  492,759;    0,000;    0,000
883,800;  492,100;    0,000;    0,000
884,400;  491,443;    0,000;    0,000
885,000;  490,786;    0,000;    0,000
885,600;  490,130;    0,000;    0,000
886,200;  489,474;    0,000;    0,000
886,800;  488,820;    0,000;    0,000
887,400;  488,166;    0,000;    0,000
888,000;  487,513;    0,000;    0,000
888,600;  486,860;    0,000;    0,000
889,200;  486,209;    0,000;    0,000
889,800;  485,558;    0,000;    0,000
890,400;  484,908;    0,000;    0,000
891,000;  484,259;    0,000;    0,000
891,600;  483,610;    0,000;    0,000
892,200;  482,962;    0,000;    0,000
892,800;  482,315;    0,000;    0,000
893,400;  481,669;    0,000;    0,000
894,000;  481,024;    0,000;    0,000
894,600;  480,379;    0,000;    0,000
895,200;  479,735;    0,000;    0,000
895,800;  479,092;    0,000;    0,000
896,400;  478,449;    0,000;    0,000
897,000;  477,808;    0,000;    0,000
897,600;  477,167;    0,000;    0,000
898,200;  476,527;    0,000;    0,000
898,800;  475,887;    0,000;    0,000
899,400;  475,249;    0,000;    0,000
900,000;  474,611;    0,000;    0,000
900,600;  473,974;    0,000;    0,000
901,200;  473,337;    0,000;    0,000
901,800;  472,702;    0,000;    0,000
902,400;  472,067;    0,000;    0,000
903,000;  471,433;    0,000;    0,000
903,600;  470,800;    0,000;    0,000
904,200;  470,167;    0,000;    0,000
904,800;  469,536;    0,000;    0,000
905,400;  468,905;    0,000;    0,000
906,000;  468,275;    0,000;    0,000
906,600;  467,645;    0,000;    0,000
907,200;  467,016;    0,000;    0,000
907,800;  466,389;    0,000;    0,000
908,400;  465,761;    0,000;    0,000
909,000;  465,135;    0,000;    0,000
909,600;  464,510;    0,000;    0,000
910,200;  463,885;    0,000;    0,000
910,800;  463,261;    0,000;    0,000
911,400;  462,637;    0,000;    0,000
912,000;  462,015;    0,000;    0,000
912,600;  461,393;    0,000;    0,000
913,200;  460,772;    0,000;    0,000
913,800;  460,152;    0,000;    0,000
914,400;  459,532;    0,000;    0,000
915,000;  458,914;    0,000;    0,000
915,600;  458,296;    0,000;    0,000
916,200;  457,679;    0,000;    0,000
916,800;  457,062;    0,000;    0,000
917,400;  456,447;    0,000;    0,000
918,000;  455,832;    0,000;    0,000
918,600;  455,218;    0,000;    0,000
919,200;  454,604;    0,000;    0,000
919,800;  453,992;    0,000;    0,000
920,400;  453,380;    0,000;    0,000
921,000;  452,769;    0,000;    0,000
921,600;  452,159;    0,000;    0,000
922,200;  451,549;    0,000;    0,000
922,800;  450,940;    0,000;    0,000
923,400;  450,332;    0,000;    0,000
924,000;  449,725;    0,000;    0,000
924,600;  449,119;    0,000;    0,000
925,200;  448,513;    0,000;    0,000
925,800;  447,908;    0,000;    0,000
926,400;  447,304;    0,000;    0,000
927,000;  446,701;    0,000;    0,000
927,600;  446,098;    0,000;    0,000
928,200;  445,496;    0,000;    0,000
928,800;  444,895;    0,000;    0,000
929,400;  444,295;    0,000;    0,000
930,000;  443,695;    0,000;    0,000
930,600;  443,096;    0,000;    0,000
931,200;  442,498;    0,000;    0,000
931,800;  441,901;    0,000;    0,000
932,400;  441,304;    0,000;    0,000
933,000;  440,709;    0,000;    0,000
933,600;  440,114;    0,000;    0,000
934,200;  439,519;    0,000;    0,000
934,800;  438,926;    0,000;    0,000
935,400;  438,333;    0,000;    0,000
936,000;  437,741;    0,000;    0,000
936,600;  437,150;    0,000;    0,000
937,200;  436,560;    0,000;    0,000
937,800;  435,970;    0,000;    0,000
938,400;  435,381;    0,000;    0,000
939,000;  434,793;    0,000;    0,000
939,600;  434,205;    0,000;    0,000
940,200;  433,619;    0,000;    0,000
940,800;  433,033;    0,000;    0,000
941,400;  432,448;    0,000;    0,000
942,000;  431,863;    0,000;    0,000
942,600;  431,280;    0,000;    0,000
943,200;  430,697;    0,000;    0,000
943,800;  430,115;    0,000;    0,000
944,400;  429,533;    0,000;    0,000
945,000;  428,953;    0,000;    0,000
945,600;  428,373;    0,000;    0,000
946,200;  427,794;    0,000;    0,000
946,800;  427,215;    0,000;    0,000
947,400;  426,638;    0,000;    0,000
948,000;  426,061;    0,000;    0,000
948,600;  425,485;    0,000;    0,000
949,200;  424,910;    0,000;    0,000
949,800;  424,335;    0,000;    0,000
950,400;  423,761;    0,000;    0,000
951,000;  423,188;    0,000;    0,000
951,600;  422,616;    0,000;    0,000
952,200;  422,044;    0,000;    0,000
952,800;  421,474;    0,000;    0,000
953,400;  420,904;    0,000;    0,000
954,000;  420,334;    0,000;    0,000
954,600;  419,766;    0,000;    0,000
955,200;  419,198;    0,000;    0,000
955,800;  418,631;    0,000;    0,000
956,400;  418,065;    0,000;    0,000
957,000;  417,499;    0,000;    0,000
957,600;  416,934;    0,000;    0,000
958,200;  416,370;    0,000;    0,000
958,800;  415,807;    0,000;    0,000
959,400;  415,244;    0,000;    0,000
960,000;  414,682;    0,000;    0,000
960,600;  414,121;    0,000;    0,000
961,200;  413,561;    0,000;    0,000
961,800;  413,001;    0,000;    0,000
962,400;  412,443;    0,000;    0,000
963,000;  411,884;    0,000;    0,000
963,600;  411,327;    0,000;    0,000
964,200;  410,771;    0,000;    0,000
964,800;  410,215;    0,000;    0,000
965,400;  409,660;    0,000;    0,000
966,000;  409,105;    0,000;    0,000
966,600;  408,552;    0,000;    0,000
967,200;  407,999;    0,000;    0,000
967,800;  407,446;    0,000;    0,000
968,400;  406,895;    0,000;    0,000
969,000;  406,344;    0,000;    0,000
969,600;  405,794;    0,000;    0,000
970,200;  405,245;    0,000;    0,000
970,800;  404,697;    0,000;    0,000
971,400;  404,149;    0,000;    0,000
972,000;  403,602;    0,000;    0,000
972,600;  403,056;    0,000;    0,000
973,200;  402,510;    0,000;    0,000
973,800;  401,965;    0,000;    0,000
974,400;  401,421;    0,000;    0,000
975,000;  400,878;    0,000;    0,000
975,600;  400,336;    0,000;    0,000
976,200;  399,794;    0,000;    0,000
976,800;  399,253;    0,000;    0,000
977,400;  398,712;    0,000;    0,000
978,000;  398,173;    0,000;    0,000
978,600;  397,634;    0,000;    0,000
979,200;  397,095;    0,000;    0,000
979,800;  396,558;    0,000;    0,000
980,400;  396,021;    0,000;    0,000
981,000;  395,485;    0,000;    0,000
981,600;  394,950;    0,000;    0,000
982,200;  394,415;    0,000;    0,000
982,800;  393,882;    0,000;    0,000
983,400;  393,349;    0,000;    0,000
984,000;  392,816;    0,000;    0,000
984,600;  392,285;    0,000;    0,000
985,200;  391,754;    0,000;    0,000
985,800;  391,223;    0,000;    0,000
986,400;  390,694;    0,000;    0,000
987,000;  390,165;    0,000;    0,000
987,600;  389,637;    0,000;    0,000
988,200;  389,110;    0,000;    0,000
988,800;  388,583;    0,000;    0,000
989,400;  388,058;    0,000;    0,000
990,000;  387,532;    0,000;    0,000
990,600;  387,008;    0,000;    0,000
991,200;  386,484;    0,000;    0,000
991,800;  385,961;    0,000;    0,000
992,400;  385,439;    0,000;    0,000
993,000;  384,918;    0,000;    0,000
993,600;  384,397;    0,000;    0,000
994,200;  383,877;    0,000;    0,000
994,800;  383,357;    0,000;    0,000
995,400;  382,839;    0,000;    0,000
996,000;  382,321;    0,000;    0,000
996,600;  381,803;    0,000;    0,000
997,200;  381,287;    0,000;    0,000
997,800;  380,771;    0,000;    0,000
998,400;  380,256;    0,000;    0,000
999,000;  379,742;    0,000;    0,000
999,600;  379,228;    0,000;    0,000
1000,200;  378,715;    0,000;    0,000
1000,800;  378,203;    0,000;    0,000
1001,400;  377,691;    0,000;    0,000
1002,000;  377,180;    0,000;    0,000
1002,600;  376,670;    0,000;    0,000
1003,200;  376,161;    0,000;    0,000
1003,800;  375,652;    0,000;    0,000
1004,400;  375,144;    0,000;    0,000
1005,000;  374,637;    0,000;    0,000
1005,600;  374,130;    0,000;    0,000
1006,200;  373,624;    0,000;    0,000
1006,800;  373,119;    0,000;    0,000
1007,400;  372,614;    0,000;    0,000
1008,000;  372,111;    0,000;    0,000
1008,600;  371,608;    0,000;    0,000
1009,200;  371,105;    0,000;    0,000
1009,800;  370,603;    0,000;    0,000
1010,400;  370,102;    0,000;    0,000
1011,000;  369,602;    0,000;    0,000
1011,600;  369,103;    0,000;    0,000
1012,200;  368,604;    0,000;    0,000
1012,800;  368,105;    0,000;    0,000
1013,400;  367,608;    0,000;    0,000
1014,000;  367,111;    0,000;    0,000
1014,600;  366,615;    0,000;    0,000
1015,200;  366,120;    0,000;    0,000
1015,800;  365,625;    0,000;    0,000
1016,400;  365,131;    0,000;    0,000
1017,000;  364,638;    0,000;    0,000
1017,600;  364,145;    0,000;    0,000
1018,200;  363,653;    0,000;    0,000
1018,800;  363,162;    0,000;    0,000
1019,400;  362,671;    0,000;    0,000
1020,000;  362,181;    0,000;    0,000
1020,600;  361,692;    0,000;    0,000
1021,200;  361,203;    0,000;    0,000
1021,800;  360,716;    0,000;    0,000
1022,400;  360,228;    0,000;    0,000
1023,000;  359,742;    0,000;    0,000
1023,600;  359,256;    0,000;    0,000
1024,200;  358,771;    0,000;    0,000
1024,800;  358,287;    0,000;    0,000
1025,400;  357,803;    0,000;    0,000
1026,000;  357,320;    0,000;    0,000
1026,600;  356,838;    0,000;    0,000
1027,200;  356,356;    0,000;    0,000
1027,800;  355,875;    0,000;    0,000
1028,400;  355,395;    0,000;    0,000
1029,000;  354,915;    0,000;    0,000
1029,600;  354,436;    0,000;    0,000
1030,200;  353,958;    0,000;    0,000
1030,800;  353,480;    0,000;    0,000
1031,400;  353,003;    0,000;    0,000
1032,000;  352,527;    0,000;    0,000
1032,600;  352,051;    0,000;    0,000
1033,200;  351,576;    0,000;    0,000
1033,800;  351,102;    0,000;    0,000
1034,400;  350,629;    0,000;    0,000
1035,000;  350,156;    0,000;    0,000
1035,600;  349,684;    0,000;    0,000
1036,200;  349,212;    0,000;    0,000
1036,800;  348,741;    0,000;    0,000
1037,400;  348,271;    0,000;    0,000
1038,000;  347,801;    0,000;    0,000
1038,600;  347,332;    0,000;    0,000
1039,200;  346,864;    0,000;    0,000
1039,800;  346,397;    0,000;    0,000
1040,400;  345,930;    0,000;    0,000
1041,000;  345,464;    0,000;    0,000
1041,600;  344,998;    0,000;    0,000
1042,200;  344,533;    0,000;    0,000
1042,800;  344,069;    0,000;    0,000
1043,400;  343,605;    0,000;    0,000
1044,000;  343,142;    0,000;    0,000
1044,600;  342,680;    0,000;    0,000
1045,200;  342,218;    0,000;    0,000
1045,800;  341,758;    0,000;    0,000
1046,400;  341,297;    0,000;    0,000
1047,000;  340,838;    0,000;    0,000
1047,600;  340,379;    0,000;    0,000
1048,200;  339,920;    0,000;    0,000
1048,800;  339,463;    0,000;    0,000
1049,400;  339,006;    0,000;    0,000
1050,000;  338,549;    0,000;    0,000
1050,600;  338,094;    0,000;    0,000
1051,200;  337,639;    0,000;    0,000
1051,800;  337,184;    0,000;    0,000
1052,400;  336,730;    0,000;    0,000
1053,000;  336,277;    0,000;    0,000
1053,600;  335,825;    0,000;    0,000
1054,200;  335,373;    0,000;    0,000
1054,800;  334,922;    0,000;    0,000
1055,400;  334,472;    0,000;    0,000
1056,000;  334,022;    0,000;    0,000
1056,600;  333,572;    0,000;    0,000
1057,200;  333,124;    0,000;    0,000
1057,800;  332,676;    0,000;    0,000
1058,400;  332,229;    0,000;    0,000
1059,000;  331,782;    0,000;    0,000
1059,600;  331,336;    0,000;    0,000
1060,200;  330,891;    0,000;    0,000
1060,800;  330,446;    0,000;    0,000
1061,400;  330,002;    0,000;    0,000
1062,000;  329,558;    0,000;    0,000
1062,600;  329,116;    0,000;    0,000
1063,200;  328,673;    0,000;    0,000
1063,800;  328,232;    0,000;    0,000
1064,400;  327,791;    0,000;    0,000
1065,000;  327,351;    0,000;    0,000
1065,600;  326,911;    0,000;    0,000
1066,200;  326,472;    0,000;    0,000
1066,800;  326,034;    0,000;    0,000
1067,400;  325,596;    0,000;    0,000
1068,000;  325,159;    0,000;    0,000
1068,600;  324,723;    0,000;    0,000
1069,200;  324,287;    0,000;    0,000
1069,800;  323,851;    0,000;    0,000
1070,400;  323,417;    0,000;    0,000
1071,000;  322,983;    0,000;    0,000
1071,600;  322,550;    0,000;    0,000
1072,200;  322,117;    0,000;    0,000
1072,800;  321,685;    0,000;    0,000
1073,400;  321,253;    0,000;    0,000
1074,000;  320,823;    0,000;    0,000
1074,600;  320,392;    0,000;    0,000
1075,200;  319,963;    0,000;    0,000
1075,800;  319,534;    0,000;    0,000
1076,400;  319,105;    0,000;    0,000
1077,000;  318,678;    0,000;    0,000
1077,600;  318,251;    0,000;    0,000
1078,200;  317,824;    0,000;    0,000
1078,800;  317,398;    0,000;    0,000
1079,400;  316,973;    0,000;    0,000
1080,000;  316,548;    0,000;    0,000
1080,600;  316,124;    0,000;    0,000
1081,200;  315,701;    0,000;    0,000
1081,800;  315,278;    0,000;    0,000
1082,400;  314,856;    0,000;    0,000
1083,000;  314,434;    0,000;    0,000
1083,600;  314,013;    0,000;    0,000
1084,200;  313,593;    0,000;    0,000
1084,800;  313,173;    0,000;    0,000
1085,400;  312,754;    0,000;    0,000
1086,000;  312,336;    0,000;    0,000
1086,600;  311,918;    0,000;    0,000
1087,200;  311,500;    0,000;    0,000
1087,800;  311,084;    0,000;    0,000
1088,400;  310,668;    0,000;    0,000
1089,000;  310,252;    0,000;    0,000
1089,600;  309,837;    0,000;    0,000
1090,200;  309,423;    0,000;    0,000
1090,800;  309,009;    0,000;    0,000
1091,400;  308,596;    0,000;    0,000
1092,000;  308,184;    0,000;    0,000
1092,600;  307,772;    0,000;    0,000
1093,200;  307,360;    0,000;    0,000
1093,800;  306,950;    0,000;    0,000
1094,400;  306,540;    0,000;    0,000
1095,000;  306,130;    0,000;    0,000
1095,600;  305,721;    0,000;    0,000
1096,200;  305,313;    0,000;    0,000
1096,800;  304,905;    0,000;    0,000
1097,400;  304,498;    0,000;    0,000
1098,000;  304,092;    0,000;    0,000
1098,600;  303,686;    0,000;    0,000
1099,200;  303,280;    0,000;    0,000
1099,800;  302,876;    0,000;    0,000
1100,400;  302,471;    0,000;    0,000
