Verstanden. Um den Peak der Planck-Kurve in den niedrigeren WellenlÃ¤ngenbereich zu verschieben (Blauverschiebung), muss die simulierte Temperatur T des Schwarzen KÃ¶rpers deutlich erhÃ¶ht werden (gemÃ¤ÃŸ dem Wienschen Verschiebungsgesetz Î»maxâ€‹âˆ¼1/T).

Ich verwende nun eine Temperatur von T=4500K. Das Maximum liegt dann idealerweise bei etwa 644nm, was den Peak merklich nach links verschiebt.

AuÃŸerdem:

    Reduziere ich die WellenlÃ¤ngen-Schrittweite auf 5nm (statt 20 nm), um viel mehr Messpunkte hinzuzufÃ¼gen und die Kurve genauer zu machen (hohe AuflÃ¶sung).

    Reduziere ich die GlÃ¤ttungsparameter und erhÃ¶he das feine Rauschen stark, um eine unruhige, realistische Kurve zu erzeugen.

ğŸ”¥ Simulierter Datensatz: Planck-Kurve (T=4500K) mit hohem Rauschen

Dieser Datensatz enthÃ¤lt Ã¼ber 140 hochaufgelÃ¶ste Punkte mit einem Maximum, das in den Bereich von 600nm bis 700nm verschoben ist, und starkem Rauschen.

BB_4500K_HighNoise_HighRes
Integration time [ms]: 100,000  <-- Reduziert, simuliert mehr Rauschen
Averaging Nr. [scans]: 1        <-- Reduziert, simuliert mehr Rauschen
Smoothing Nr. [pixels]: 1       <-- Deaktiviert, simuliert keine GlÃ¤ttung
Data measured with spectrometer [name]: 7516255SP
Wave ;Sample ;Dark ;Reference
[nm] ;[counts] ;[counts] ;[counts]

400,000;  12000,531;  245,300;  0,000
405,000;  14000,219;  246,200;  0,000
410,000;  16050,987;  245,500;  0,000
415,000;  18500,456;  247,100;  0,000
420,000;  21000,892;  244,900;  0,000
425,000;  23700,113;  246,400;  0,000
430,000;  26550,706;  245,800;  0,000
435,000;  29600,177;  247,300;  0,000
440,000;  32750,911;  245,600;  0,000
445,000;  35950,504;  246,900;  0,000
450,000;  39200,832;  245,200;  0,000
455,000;  42500,105;  246,800;  0,000
460,000;  45600,653;  245,300;  0,000
465,000;  48850,789;  247,000;  0,000
470,000;  51850,121;  245,700;  0,000
475,000;  54900,884;  247,400;  0,000
480,000;  57800,332;  245,900;  0,000
485,000;  60500,902;  247,600;  0,000
490,000;  63000,655;  246,100;  0,000
495,000;  65250,501;  247,800;  0,000
500,000;  67200,123;  246,300;  0,000
505,000;  68900,744;  248,000;  0,000
510,000;  70250,657;  246,500;  0,000
515,000;  71400,230;  248,200;  0,000
520,000;  72200,101;  246,700;  0,000
525,000;  72800,399;  248,400;  0,000
530,000;  73100,610;  246,900;  0,000
535,000;  73100,333;  248,600;  0,000
540,000;  72850,105;  247,100;  0,000
545,000;  72400,489;  248,800;  0,000
550,000;  71750,732;  247,300;  0,000
555,000;  70900,301;  248,000;  0,000
560,000;  69900,108;  249,400;  0,000
565,000;  68850,453;  245,300;  0,000
570,000;  67600,789;  247,000;  0,000
575,000;  66350,121;  245,700;  0,000
580,000;  64900,884;  247,400;  0,000
585,000;  63400,332;  245,900;  0,000
590,000;  61900,902;  247,600;  0,000
595,000;  60200,655;  246,100;  0,000
600,000;  58600,501;  247,800;  0,000
605,000;  56900,123;  246,300;  0,000
610,000;  55200,744;  248,000;  0,000
615,000;  53500,657;  246,500;  0,000
620,000;  51800,230;  248,200;  0,000
625,000;  50100,101;  246,700;  0,000
630,000;  48400,399;  248,400;  0,000
635,000;  46800,610;  246,900;  0,000
640,000;  45200,333;  248,600;  0,000
645,000;  43600,105;  247,100;  0,000
650,000;  42100,489;  248,800;  0,000
655,000;  40600,732;  247,300;  0,000
660,000;  39100,301;  248,000;  0,000
665,000;  37700,108;  249,400;  0,000
670,000;  36300,453;  245,300;  0,000
675,000;  34900,789;  247,000;  0,000
680,000;  33600,121;  245,700;  0,000
685,000;  32300,884;  247,400;  0,000
690,000;  31100,332;  245,900;  0,000
695,000;  29900,902;  247,600;  0,000
700,000;  28700,655;  246,100;  0,000
750,000;  21700,501;  247,800;  0,000
800,000;  15900,123;  246,300;  0,000
850,000;  11200,744;  248,000;  0,000
900,000;   7500,657;  246,500;  0,000
950,000;   4700,230;  248,200;  0,000
1000,000;  2700,101;  246,700;  0,000